#Wave		#Intensity
4001.644531	936.865967
4000.500000	864.799377
3999.354492	899.575745
3998.209961	853.567017
3997.064453	953.811646
3995.918945	892.534119
3994.772461	903.279541
3993.626953	868.210876
3992.480469	896.405090
3991.333984	839.544128
3990.187500	941.861084
3989.040039	935.148743
3987.893555	911.003357
3986.746094	915.194214
3985.598633	912.847656
3984.451172	851.689514
3983.302734	892.912048
3982.154297	894.925598
3981.006836	899.115356
3979.857422	866.300781
3978.708984	946.662415
3977.560547	933.433594
3976.411133	889.753479
3975.261719	920.040588
3974.112305	932.919495
3972.961914	897.960327
3971.811523	871.709351
3970.662109	925.885254
3969.511719	882.254333
3968.360352	871.229065
3967.209961	871.069031
3966.058594	914.345825
3964.907227	901.149170
3963.755859	809.799744
3962.604492	872.599670
3961.452148	928.865723
3960.299805	896.147278
3959.147461	856.932495
3957.995117	891.479797
3956.841797	865.292114
3955.689453	860.796570
3954.536133	843.295471
3953.382813	860.480103
3952.228516	855.987793
3951.075195	896.996948
3949.920898	918.494629
3948.766602	892.335388
3947.612305	946.307861
3946.458008	926.648254
3945.302734	878.855103
3944.147461	865.707825
3942.992188	932.628601
3941.836914	854.572021
3940.680664	912.817871
3939.525391	839.118896
3938.369141	893.021484
3937.211914	882.047729
3936.055664	875.401001
3934.898438	937.911377
3933.742188	942.060181
3932.584961	836.032532
3931.426758	900.675476
3930.269531	894.031189
3929.111328	844.207336
3927.953125	906.654297
3926.794922	824.471863
3925.636719	871.793945
3924.477539	839.270813
3923.319336	869.315857
3922.160156	864.842346
3921.000000	890.558899
3919.840820	942.136963
3918.680664	844.964905
3917.520508	905.152771
3916.360352	937.307007
3915.200195	872.504395
3914.040039	844.342468
3912.878906	839.879822
3911.717773	912.931885
3910.556641	886.930725
3909.394531	908.290771
3908.233398	923.187073
3907.071289	916.562256
3905.909180	892.730591
3904.746094	843.098572
3903.583984	877.348999
3902.420898	902.986877
3901.257813	868.427246
3900.094727	872.565491
3898.931641	898.190002
3897.767578	850.759949
3896.603516	869.934937
3895.439453	848.298645
3894.275391	923.294006
3893.111328	936.004517
3891.946289	925.099915
3890.781250	860.549011
3889.616211	836.788574
3888.451172	862.376770
3887.285156	898.679626
3886.119141	894.224976
3884.953125	898.348083
3883.787109	840.304199
3882.620117	850.865356
3881.454102	919.279236
3880.287109	829.126831
3879.120117	880.383057
3877.952148	822.395874
3876.785156	843.656677
3875.617188	944.121582
3874.449219	779.131104
3873.281250	883.850891
3872.112305	883.687744
3870.944336	849.296021
3869.775391	868.389221
3868.606445	848.982361
3867.436523	857.377991
3866.267578	902.111450
3865.097656	829.276306
3863.927734	863.313782
3862.757813	884.519470
3861.587891	841.633545
3860.416992	901.278564
3859.246094	847.728638
3858.075195	843.302124
3856.904297	866.626282
3855.732422	872.868591
3854.560547	844.968445
3853.388672	864.012573
3852.216797	895.847412
3851.044922	857.295471
3849.872070	904.044983
3848.699219	856.978577
3847.526367	897.316589
3846.353516	843.875732
3845.179688	875.678772
3844.005859	849.954346
3842.832031	886.004028
3841.658203	845.381165
3840.484375	862.257019
3839.309570	891.898499
3838.134766	855.553406
3836.959961	883.057190
3835.785156	942.462524
3834.609375	901.874023
3833.434570	867.680481
3832.258789	850.509766
3831.082031	918.380554
3829.906250	922.461609
3828.729492	877.663940
3827.552734	858.379211
3826.375977	875.214783
3825.199219	841.070190
3824.021484	872.767334
3822.844727	830.143188
3821.666992	836.357727
3820.489258	836.202881
3819.310547	880.609009
3818.131836	912.269287
3816.954102	863.313599
3815.774414	863.153748
3814.595703	837.549316
3813.416992	877.673950
3812.237305	885.989746
3811.057617	796.819275
3809.877930	879.305115
3808.697266	929.984192
3807.516602	851.445068
3806.336914	885.169434
3805.155273	901.943298
3803.974609	838.270813
3802.792969	876.211670
3801.612305	842.192261
3800.430664	846.267517
3799.248047	901.107910
3798.066406	886.136658
3796.883789	830.995605
3795.701172	964.029907
3794.518555	900.439941
3793.335938	819.966919
3792.152344	815.589050
3790.968750	883.038879
3789.785156	882.875122
3788.601563	908.052429
3787.417969	876.213623
3786.233398	865.496277
3785.048828	882.220337
3783.864258	905.268738
3782.678711	805.940552
3781.494141	854.307251
3780.308594	936.400146
3779.123047	896.162659
3777.937500	919.186890
3776.750977	769.359985
3775.564453	840.870300
3774.377930	895.497681
3773.191406	859.518188
3772.004883	903.590332
3770.817383	857.093262
3769.629883	861.145142
3768.442383	873.615845
3767.254883	871.348999
3766.066406	837.518127
3764.878906	833.154785
3763.690430	885.588440
3762.500977	914.867981
3761.312500	843.204468
3760.123047	876.685669
3758.933594	884.930725
3757.744141	909.985352
3756.554688	882.500793
3755.364258	915.949707
3754.173828	873.771301
3752.983398	850.508728
3751.792969	791.561035
3750.602539	902.673706
3749.411133	910.901367
3748.219727	862.467468
3747.028320	818.247681
3745.835938	866.342285
3744.644531	820.040833
3743.452148	872.310974
3742.259766	886.824341
3741.067383	838.448669
3739.874023	871.824524
3738.680664	871.662415
3737.487305	936.443848
3736.293945	906.945862
3735.100586	919.342224
3733.906250	856.357727
3732.711914	814.330566
3731.517578	920.922363
3730.323242	899.824890
3729.127930	872.458557
3727.932617	907.857483
3726.737305	886.774048
3725.541992	886.609070
3724.345703	857.174744
3723.150391	850.744385
3721.954102	932.091858
3720.757813	852.517273
3719.560547	912.942871
3718.364258	885.619507
3717.166992	787.302856
3715.969727	839.354980
3714.771484	893.475281
3713.574219	870.350037
3712.375977	832.625916
3711.177734	922.185791
3709.979492	815.627808
3708.780273	875.958801
3707.582031	909.159302
3706.382813	890.226440
3705.183594	938.002991
3703.983398	812.784485
3702.784180	875.143311
3701.583984	820.814819
3700.383789	889.397522
3699.182617	876.736755
3697.982422	870.327026
3696.781250	872.246582
3695.580078	803.399597
3694.378906	838.626160
3693.177734	805.180725
3691.975586	877.837036
3690.773438	875.593628
3689.571289	865.033386
3688.369141	956.348938
3687.166016	954.092041
3685.962891	885.332031
3684.759766	849.843384
3683.556641	820.600342
3682.352539	789.291077
3681.149414	836.907898
3679.945313	849.209656
3678.740234	880.190002
3677.536133	834.364136
3676.331055	854.959900
3675.126953	890.071289
3673.920898	885.756531
3672.715820	817.149780
3671.510742	831.512451
3670.304688	870.748291
3669.098633	874.731445
3667.891602	899.437439
3666.685547	818.459656
3665.478516	830.736816
3664.271484	863.722168
3663.064453	863.560974
3661.857422	873.752258
3660.649414	896.360413
3659.441406	861.007629
3658.233398	900.164368
3657.025391	858.617126
3655.816406	895.691040
3654.607422	841.750977
3653.398438	804.373413
3652.189453	901.391541
3650.980469	847.480469
3649.770508	880.388428
3648.560547	890.555176
3647.350586	886.257080
3646.139648	838.585388
3644.929688	890.056091
3643.718750	846.530884
3642.507813	854.629944
3641.295898	852.406311
3640.084961	846.056335
3638.873047	932.551208
3637.661133	874.619019
3636.449219	857.956360
3635.236328	886.664063
3634.023438	804.033325
3632.810547	865.720154
3631.597656	877.923401
3630.384766	799.461487
3629.170898	807.552307
3627.957031	797.102783
3626.743164	881.385437
3625.529297	895.633057
3624.314453	862.528870
3623.099609	907.646973
3621.884766	882.783936
3620.669922	855.872742
3619.454102	884.510620
3618.239258	816.476746
3617.023438	824.548889
3615.806641	902.516785
3614.590820	863.294067
3613.374023	883.683228
3612.157227	838.314636
3610.940430	813.505981
3609.723633	893.456726
3608.505859	889.182373
3607.288086	866.431213
3606.070313	827.266296
3604.852539	894.840149
3603.633789	906.984558
3602.415039	869.885620
3601.196289	857.415283
3599.977539	801.881775
3598.758789	887.851074
3597.539063	848.733276
3596.319336	815.779114
3595.099609	811.527649
3593.878906	862.598816
3592.659180	905.456604
3591.438477	878.660889
3590.217773	876.448425
3588.996094	886.521179
3587.775391	886.354980
3586.553711	912.794983
3585.332031	865.560364
3584.109375	873.581543
3582.887695	879.554138
3581.665039	789.405273
3580.442383	893.537354
3579.219727	805.463867
3577.996094	878.894714
3576.773438	864.424988
3575.549805	805.010803
3574.325195	906.999390
3573.101563	914.998901
3571.876953	922.995361
3570.652344	792.157104
3569.427734	855.287537
3568.203125	879.617615
3566.977539	867.209595
3565.752930	924.169983
3564.526367	881.162231
3563.300781	809.619812
3562.075195	797.234131
3560.848633	894.936279
3559.622070	786.743896
3558.395508	864.033142
3557.167969	916.844177
3555.940430	833.153015
3554.712891	820.776611
3553.485352	912.255310
3552.257813	861.186462
3551.029297	897.664063
3549.800781	869.003601
3548.572266	822.041016
3547.343750	840.195984
3546.114258	866.480042
3544.884766	841.913940
3543.655273	817.357117
3542.425781	857.860413
3541.195313	810.952576
3539.965820	829.088989
3538.734375	883.789063
3537.503906	877.528992
3536.273438	877.364075
3535.041992	844.710327
3533.810547	858.762756
3532.579102	919.495056
3531.346680	862.498779
3530.115234	858.278564
3528.882813	868.260437
3527.650391	859.984131
3526.416992	867.933960
3525.184570	894.128296
3523.951172	918.285583
3522.717773	845.150269
3521.483398	849.044067
3520.250000	885.351929
3519.015625	844.673462
3517.781250	889.069336
3516.545898	892.951721
3515.311523	830.025696
3514.076172	848.086182
3512.840820	819.594910
3511.605469	839.673767
3510.369141	849.630432
3509.133789	887.898926
3507.897461	853.354980
3506.660156	889.586548
3505.423828	851.012329
3504.186523	812.452637
3502.949219	856.753906
3501.711914	862.653381
3500.474609	894.809143
3499.236328	910.796692
3497.998047	864.185303
3496.759766	888.247498
3495.521484	884.043457
3494.282227	861.679138
3493.042969	817.129578
3491.803711	883.544006
3490.564453	881.360718
3489.324219	903.375793
3488.084961	903.205566
3486.844727	870.784119
3485.603516	864.574097
3484.363281	814.037537
3483.122070	870.291931
3481.880859	914.440002
3480.639648	900.171021
3479.397461	857.719360
3478.156250	797.166321
3476.914063	819.155334
3475.671875	891.443237
3474.428711	891.275208
3473.186523	889.095581
3471.943359	860.771851
3470.700195	778.167969
3469.456055	878.540771
3468.212891	878.375061
3466.968750	864.141968
3465.724609	847.904907
3464.479492	881.895813
3463.235352	913.865356
3461.990234	937.790344
3460.745117	903.481873
3459.499023	847.105347
3458.253906	883.071167
3457.007813	862.838501
3455.761719	840.607178
3454.515625	834.431030
3453.268555	816.224304
3452.021484	834.116028
3450.775391	841.977356
3449.527344	833.801086
3448.280273	855.687134
3447.032227	873.557739
3445.784180	917.463074
3444.536133	863.213745
3443.287109	810.987366
3442.039063	880.906311
3440.790039	856.719727
3439.541016	844.550049
3438.291016	854.395142
3437.041992	874.239197
3435.791992	872.073914
3434.541992	893.906799
3433.291016	845.752014
3432.041016	859.585449
3430.790039	815.452515
3429.539063	859.260559
3428.287109	873.083496
3427.036133	852.943176
3425.784180	828.816223
3424.532227	856.614319
3423.280273	830.499268
3422.027344	798.406006
3420.774414	870.097961
3419.521484	845.990356
3418.268555	843.835449
3417.014648	815.752808
3415.761719	829.557434
3414.507813	815.444275
3413.252930	865.124390
3411.999023	884.890686
3410.744141	882.730652
3409.489258	818.811890
3408.234375	892.356018
3406.978516	846.382935
3405.723633	838.258301
3404.467773	834.118225
3403.210938	822.018188
3401.955078	843.752441
3400.698242	859.509583
3399.441406	875.260681
3398.184570	908.905518
3396.927734	882.883240
3395.669922	797.227783
3394.412109	870.622620
3393.154297	870.457764
3391.896484	894.136536
3390.637695	826.423035
3389.378906	865.990906
3388.120117	899.586182
3386.861328	877.575623
3385.601563	889.319946
3384.341797	875.258484
3383.082031	841.358948
3381.822266	857.071228
3380.561523	852.941650
3379.300781	892.444214
3378.040039	854.601257
3376.779297	927.790222
3375.517578	868.151917
3374.256836	873.932495
3372.995117	842.065552
3371.732422	859.734497
3370.470703	825.901672
3369.208008	815.844055
3367.945313	853.306091
3366.682617	825.431946
3365.418945	860.898865
3364.155273	831.055054
3362.891602	830.897400
3361.627930	812.938232
3360.363281	850.358032
3359.099609	901.603943
3357.834961	901.432922
3356.569336	841.968384
3355.304688	841.808594
3354.039063	904.871338
3352.773438	794.081360
3351.507813	821.579956
3350.241211	902.381714
3348.975586	923.926636
3347.708984	823.086060
3346.442383	811.089111
3345.174805	842.504395
3343.907227	899.552856
3342.639648	907.271423
3341.372070	865.688110
3340.104492	859.608948
3338.835938	821.992798
3337.567383	849.428345
3336.298828	894.587524
3335.029297	872.746704
3333.760742	868.641541
3332.491211	821.212524
3331.221680	838.777161
3329.951172	862.240845
3328.681641	866.013428
3327.411133	836.331299
3326.139648	861.749390
3324.869141	896.993286
3323.597656	865.355347
3322.327148	853.392822
3321.054688	882.720154
3319.783203	864.862000
3318.510742	854.871460
3317.238281	909.724670
3315.965820	844.724060
3314.693359	879.917297
3313.419922	860.112671
3312.146484	909.032959
3310.873047	857.822632
3309.599609	871.397705
3308.325195	910.476624
3307.050781	853.409485
3305.776367	865.016113
3304.501953	855.045959
3303.226563	856.843994
3301.951172	868.443176
3300.675781	883.957947
3299.400391	823.041443
3298.124023	842.477295
3296.847656	893.247742
3295.571289	851.949158
3294.294922	830.247559
3293.017578	849.667114
3291.740234	872.993958
3290.462891	874.784790
3289.185547	851.138550
3287.907227	921.402100
3286.628906	823.431885
3285.350586	879.985291
3284.072266	920.875854
3282.792969	893.333557
3281.513672	748.537354
3280.234375	902.763428
3278.955078	863.518250
3277.674805	863.353760
3276.394531	900.294678
3275.114258	868.882385
3273.833984	913.616821
3272.552734	854.888733
3271.272461	829.357239
3269.990234	829.199158
3268.708984	909.019165
3267.426758	860.088074
3266.145508	920.372314
3264.862305	912.398560
3263.580078	875.189880
3262.296875	851.637085
3261.014648	865.113892
3259.731445	866.897034
3258.447266	841.411438
3257.164063	849.040344
3255.879883	807.992065
3254.595703	883.755249
3253.310547	934.188538
3252.026367	860.067871
3250.741211	898.813416
3249.456055	842.233704
3248.169922	919.862610
3246.884766	873.022217
3245.598633	917.567627
3244.312500	851.309143
3243.025391	866.692749
3241.739258	870.413086
3240.452148	866.361877
3239.165039	873.965088
3237.876953	937.876770
3236.589844	885.279846
3235.301758	887.051819
3234.013672	809.255981
3232.724609	911.936890
3231.436523	923.402283
3230.147461	872.797607
3228.857422	895.901062
3227.568359	895.729919
3226.278320	854.851624
3224.989258	843.059875
3223.698242	866.151184
3222.408203	842.737793
3221.117188	863.883301
3219.826172	873.401123
3218.535156	937.129395
3217.244141	925.335205
3215.952148	861.287598
3214.660156	909.500671
3213.368164	849.349976
3212.076172	868.531250
3210.783203	879.969177
3209.490234	883.668213
3208.197266	850.633850
3206.903320	796.350281
3205.610352	854.173584
3204.316406	886.856812
3203.022461	915.663879
3201.727539	888.448975
3200.432617	897.934265
3199.137695	834.050293
3197.842773	824.239258
3196.547852	885.839417
3195.251953	852.867310
3193.956055	823.766174
3192.660156	848.683289
3191.363281	865.877014
3190.067383	809.796753
3188.770508	944.582031
3187.472656	894.290161
3186.175781	876.776123
3184.877930	801.470398
3183.580078	909.186584
3182.282227	853.162170
3180.983398	872.253845
3179.684570	893.263306
3178.385742	896.941772
3177.086914	919.862793
3175.788086	836.953308
3174.488281	861.800598
3173.188477	878.945129
3171.887695	946.079163
3170.587891	855.537720
3169.287109	839.996277
3167.986328	857.131714
3166.685547	851.203125
3165.383789	891.382751
3164.082031	864.321899
3162.780273	937.129456
3161.478516	850.550781
3160.175781	902.217224
3158.873047	921.236694
3157.570313	869.250427
3156.267578	920.883484
3154.963867	893.852966
3153.660156	889.846008
3152.356445	860.914307
3151.052734	858.832153
3149.748047	868.250793
3148.443359	858.502747
3147.138672	894.740784
3145.833984	863.920105
3144.528320	854.178406
3143.222656	871.247986
3141.916992	957.231628
3140.610352	888.140503
3139.304688	874.573975
3137.998047	876.319519
3136.691406	920.150208
3135.383789	874.070557
3134.076172	896.849854
3132.768555	866.087402
3131.460938	829.602173
3130.153320	877.221863
3128.844727	909.536865
3127.536133	903.630981
3126.227539	920.647949
3124.917969	861.270752
3123.608398	790.460327
3122.298828	893.392212
3120.989258	864.591736
3119.678711	904.498352
3118.369141	892.877441
3117.057617	930.855713
3115.747070	909.698486
3114.436523	882.829102
3113.125000	854.063538
3111.813477	876.771729
3110.500977	884.225891
3109.189453	855.476501
3107.876953	849.597290
3106.564453	838.006653
3105.250977	885.450378
3103.937500	870.049500
3102.625000	841.330322
3101.310547	873.521179
3099.997070	875.255920
3098.682617	890.306519
3097.368164	865.409302
3096.053711	884.259216
3094.739258	889.792908
3093.423828	857.306396
3092.108398	885.649536
3090.792969	856.976624
3089.476563	834.014038
3088.160156	900.333923
3086.843750	877.371826
3085.527344	882.899109
3084.210938	850.457336
3082.893555	876.865356
3081.576172	920.341614
3080.257813	878.425049
3078.940430	792.896301
3077.622070	923.603271
3076.303711	919.633118
3074.984375	881.540344
3073.666016	909.801880
3072.346680	818.664001
3071.027344	922.714355
3069.707031	858.129517
3068.387695	890.161560
3067.067383	806.671875
3065.747070	861.420227
3064.425781	838.539856
3063.104492	811.883240
3061.783203	879.843750
3060.461914	904.267273
3059.140625	824.653870
3057.818359	877.444153
3056.496094	826.226685
3055.173828	882.776917
3053.850586	822.128296
3052.527344	882.436584
3051.204102	870.931152
3049.880859	849.985779
3048.556641	874.372314
3047.233398	942.176331
3045.909180	879.698425
3044.583984	864.429565
3043.259766	883.133179
3041.934570	865.982788
3040.608398	860.156799
3039.283203	910.911377
3037.957031	910.735657
3036.630859	878.511292
3035.304688	891.535706
3033.978516	853.673889
3032.651367	864.813904
3031.324219	866.530762
3029.997070	875.780518
3028.668945	868.079346
3027.341797	845.319702
3026.013672	888.449646
3024.684570	878.868408
3023.356445	882.461853
3022.027344	938.728027
3020.698242	855.789124
3019.368164	896.994690
3018.039063	859.218872
3016.708984	874.091064
3015.378906	920.907288
3014.047852	866.237244
3012.717773	841.647156
3011.386719	864.024292
3010.055664	877.002991
3008.723633	921.895691
3007.392578	936.735352
3006.060547	895.263367
3004.727539	896.966797
3003.395508	893.041199
3002.062500	829.092224
3000.729492	866.440247
2999.396484	843.772156
2998.062500	811.739319
2996.728516	869.686462
2995.394531	886.383972
2994.060547	861.855774
2992.725586	914.139709
2991.390625	895.234192
2990.055664	850.120728
2988.720703	806.896851
2987.384766	874.125122
2986.048828	894.541748
2984.712891	868.173767
2983.376953	933.480408
2982.040039	852.875122
2980.703125	884.499756
2979.366211	884.328552
2978.028320	932.758057
2976.690430	897.068542
2975.352539	917.448730
2974.014648	902.325806
2972.675781	887.208679
