#Wave		#Intensity
4001.644531	2804.046387
4000.500000	2845.539307
3999.354492	2617.939941
3998.209961	2800.834961
3997.064453	2732.659424
3995.918945	2751.798340
3994.772461	2725.111572
3993.626953	2700.615723
3992.480469	2691.396240
3991.333984	2782.489014
3990.187500	2753.635498
3989.040039	2818.525146
3987.893555	2706.856934
3986.746094	2671.495605
3985.598633	2797.365967
3984.451172	2766.357422
3983.302734	2689.625244
3982.154297	2717.438232
3981.006836	2725.647461
3979.857422	2749.090088
3978.708984	2711.589355
3977.560547	2693.684814
3976.411133	2714.944580
3975.261719	2742.721436
3974.112305	2685.677246
3972.961914	2752.585449
3971.811523	2723.820068
3970.662109	2621.167969
3969.511719	2698.916016
3968.360352	2659.312744
3967.209961	2780.469727
3966.058594	2764.755859
3964.907227	2690.418945
3963.755859	2713.806152
3962.604492	2745.867188
3961.452148	2680.255127
3960.299805	2705.800781
3959.147461	2670.592285
3957.995117	2635.396484
3956.841797	2676.116455
3955.689453	2697.307129
3954.536133	2733.664795
3953.382813	2696.315430
3952.228516	2702.321045
3951.075195	2775.490479
3949.920898	2645.004639
3948.766602	2715.991699
3947.612305	2776.125244
3946.458008	2782.109863
3945.302734	2699.340820
3944.147461	2631.751953
3942.992188	2596.645752
3941.836914	2719.486084
3940.680664	2656.256592
3939.525391	2634.141113
3938.369141	2700.687256
3937.211914	2730.456543
3936.055664	2671.594238
3934.898438	2692.713379
3933.742188	2700.860596
3932.584961	2696.042969
3931.426758	2656.668701
3930.269531	2630.265625
3929.111328	2638.417969
3927.953125	2661.677979
3926.794922	2568.380859
3925.636719	2671.487549
3924.477539	2668.838135
3923.319336	2717.960205
3922.160156	2717.459717
3921.000000	2589.736572
3919.840820	2574.168213
3918.680664	2666.381592
3917.520508	2601.236572
3916.360352	2626.614258
3915.200195	2658.445313
3914.040039	2629.954590
3912.878906	2694.076172
3911.717773	2590.229004
3910.556641	2682.319824
3909.394531	2686.130127
3908.233398	2562.973877
3907.071289	2693.746338
3905.909180	2755.633545
3904.746094	2608.873779
3903.583984	2601.941895
3902.420898	2665.961182
3901.257813	2596.683594
3900.094727	2639.188232
3898.931641	2610.767578
3897.767578	2618.879639
3896.603516	2672.096436
3895.439453	2684.489258
3894.275391	2608.842529
3893.111328	2576.159424
3891.946289	2665.833008
3890.781250	2684.655518
3889.616211	2600.481445
3888.451172	2565.678223
3887.285156	2550.191162
3886.119141	2669.808350
3884.953125	2673.604004
3883.787109	2595.939697
3882.620117	2616.893066
3881.454102	2571.410400
3880.287109	2525.944580
3879.120117	2598.308105
3877.952148	2512.162354
3876.785156	2740.813477
3875.617188	2616.137451
3874.449219	2724.818359
3873.281250	2598.050781
3872.112305	2469.190430
3870.944336	2579.977295
3869.775391	2639.389893
3868.606445	2549.085693
3867.436523	2606.343506
3866.267578	2605.862305
3865.097656	2549.810791
3863.927734	2651.911865
3862.757813	2527.503662
3861.587891	2552.670410
3860.416992	2616.270752
3859.246094	2615.787354
3858.075195	2566.200439
3856.904297	2548.649658
3855.732422	2567.386230
3854.560547	2532.771484
3853.388672	2547.237061
3852.216797	2629.952148
3851.044922	2550.560547
3849.872070	2579.939697
3848.699219	2549.617676
3847.526367	2480.941895
3846.353516	2595.557129
3845.179688	2618.513916
3844.005859	2526.430664
3842.832031	2611.156250
3841.658203	2655.391113
3840.484375	2531.416260
3839.309570	2609.707764
3838.134766	2543.249512
3836.959961	2581.080322
3835.785156	2527.416504
3834.609375	2503.551270
3833.434570	2630.688232
3832.258789	2502.625000
3831.082031	2508.539551
3829.906250	2459.189209
3828.729492	2643.617188
3827.552734	2488.024902
3826.375977	2462.072754
3825.199219	2640.025879
3824.021484	2507.878906
3822.844727	2575.354736
3821.666992	2562.141602
3820.489258	2572.278809
3819.310547	2597.266113
3818.131836	2467.370117
3816.954102	2572.971436
3815.774414	2542.804199
3814.595703	2485.083008
3813.416992	2541.862549
3812.237305	2503.239014
3811.057617	2530.324951
3809.877930	2546.806641
3808.697266	2470.072021
3807.516602	2511.974854
3806.336914	2511.509277
3805.155273	2479.285400
3803.974609	2485.176514
3802.792969	2575.723633
3801.612305	2503.300293
3800.430664	2534.571289
3799.248047	2438.914063
3798.066406	2482.874512
3796.883789	2507.788330
3795.701172	2439.672119
3794.518555	2576.610840
3793.335938	2510.620361
3792.152344	2478.460938
3790.968750	2594.190918
3789.785156	2437.411377
3788.601563	2441.182861
3787.417969	2411.171143
3786.233398	2395.947021
3785.048828	2473.593994
3783.864258	2582.864746
3782.678711	2455.798096
3781.494141	2457.451904
3780.308594	2501.285156
3779.123047	2505.038330
3777.937500	2523.547363
3776.750977	2424.010986
3775.564453	2436.205811
3774.377930	2473.680664
3773.191406	2629.114502
3772.004883	2512.781494
3770.817383	2484.938721
3769.629883	2349.726074
3768.442383	2492.436523
3767.254883	2496.183350
3766.066406	2558.849365
3764.878906	2419.515137
3763.690430	2442.204590
3762.500977	2458.576416
3761.312500	2554.846436
3760.123047	2432.434814
3758.933594	2492.940186
3757.744141	2408.413818
3756.554688	2399.561768
3755.364258	2470.543213
3754.173828	2459.582275
3752.983398	2410.824707
3751.792969	2420.875000
3750.602539	2395.234131
3749.411133	2453.556885
3748.219727	2482.479492
3747.028320	2448.448975
3745.835938	2359.891113
3744.644531	2472.706299
3743.452148	2440.793213
3742.259766	2480.173096
3741.067383	2372.809814
3739.874023	2481.346680
3738.680664	2455.741211
3737.487305	2478.329102
3736.293945	2450.638916
3735.100586	2433.429688
3733.906250	2403.664307
3732.711914	2507.886963
3731.517578	2509.513428
3730.323242	2385.582275
3729.127930	2473.011963
3727.932617	2351.225342
3726.737305	2407.257080
3725.541992	2496.724609
3724.345703	2372.910400
3723.150391	2470.712158
3721.954102	2418.005127
3720.757813	2423.823486
3719.560547	2490.224121
3718.364258	2416.655273
3717.166992	2443.353760
3715.969727	2361.468994
3714.771484	2436.181396
3713.574219	2452.425049
3712.375977	2381.018066
3711.177734	2438.993652
3709.979492	2428.109375
3708.780273	2448.513428
3707.582031	2423.034668
3706.382813	2455.940674
3705.183594	2355.429688
3703.983398	2455.025879
3702.784180	2502.493164
3701.583984	2460.361084
3700.383789	2524.472656
3699.182617	2463.609375
3697.982422	2438.165039
3696.781250	2437.710693
3695.580078	2362.327881
3694.378906	2486.745117
3693.177734	2515.409668
3691.975586	2454.615479
3690.773438	2566.466797
3689.571289	2459.938721
3688.369141	2480.270264
3687.166016	2546.323975
3685.962891	2427.389404
3684.759766	2354.211670
3683.556641	2563.597168
3682.352539	2486.267090
3681.149414	2452.576172
3679.945313	2468.729248
3678.740234	2470.344727
3677.536133	2544.603027
3676.331055	2479.798828
3675.126953	2385.972168
3673.920898	2507.914795
3672.715820	2538.556641
3671.510742	2494.537354
3670.304688	2477.486328
3669.098633	2373.382813
3667.891602	2497.285889
3666.685547	2627.359131
3665.478516	2479.780518
3664.271484	2485.531494
3663.064453	2443.649658
3661.857422	2540.507080
3660.649414	2583.505371
3659.441406	2502.303467
3658.233398	2514.252197
3657.025391	2588.265137
3655.816406	2469.873291
3654.607422	2512.843994
3653.398438	2609.561035
3652.189453	2596.669189
3650.980469	2565.178711
3649.770508	2525.433350
3648.560547	2566.286621
3647.350586	2623.651367
3646.139648	2633.488770
3644.929688	2682.558838
3643.718750	2599.469238
3642.507813	2646.462891
3641.295898	2542.771240
3640.084961	2552.613770
3638.873047	2677.989990
3637.661133	2627.982666
3636.449219	2608.929688
3635.236328	2631.124023
3634.023438	2700.727295
3632.810547	2599.221680
3631.597656	2592.553223
3630.384766	2596.189209
3629.170898	2698.707764
3627.957031	2694.083740
3626.743164	2672.986816
3625.529297	2656.015381
3624.314453	2657.577148
3623.099609	2568.579102
3621.884766	2683.333740
3620.669922	2686.946533
3619.454102	2754.324951
3618.239258	2685.941162
3617.023438	2730.675537
3615.806641	2649.986572
3614.590820	2647.435059
3613.374023	2716.812256
3612.157227	2650.553467
3610.940430	2699.360840
3609.723633	2744.041748
3608.505859	2686.029053
3607.288086	2814.874756
3606.070313	2730.184082
3604.852539	2727.620605
3603.633789	2739.421875
3602.415039	2788.147461
3601.196289	2719.934570
3599.977539	2776.848877
3598.758789	2700.461670
3597.539063	2820.910645
3596.319336	2726.095947
3595.099609	2834.198975
3593.878906	2788.591553
3592.659180	2710.224365
3591.438477	2623.693604
3590.217773	2823.884033
3588.996094	2845.876221
3587.775391	2794.167480
3586.553711	2863.229248
3585.332031	2774.704102
3584.109375	2772.137939
3582.887695	2841.164551
3581.665039	2834.496582
3580.442383	2848.278076
3579.219727	2810.946289
3577.996094	2847.209961
3576.773438	2863.024658
3575.549805	2921.739746
3574.325195	2839.479980
3573.101563	2918.601318
3571.876953	2873.129395
3570.652344	2907.298340
3569.427734	2886.340332
3568.203125	2918.452881
3566.977539	2875.054932
3565.752930	2907.157227
3564.526367	2963.723877
3563.300781	2938.695557
3562.075195	2964.650635
3560.848633	2929.438477
3559.622070	3045.065674
3558.395508	3077.099121
3557.167969	3025.585693
3555.940430	2947.609863
3554.712891	2977.606445
3553.485352	2970.938477
3552.257813	2972.416504
3551.029297	2923.005859
3549.800781	3050.670654
3548.572266	3074.514648
3547.343750	2998.665527
3546.114258	3022.510254
3544.884766	3099.219482
3543.655273	2990.876221
3542.425781	3059.431152
3541.195313	3121.862549
3539.965820	3098.923096
3538.734375	3153.196777
3537.503906	3071.351563
3536.273438	3156.073730
3535.041992	3155.480469
3533.810547	3138.645996
3532.579102	3133.996338
3531.346680	3163.848389
3530.115234	3084.121582
3528.882813	3122.086182
3527.650391	3113.385986
3526.416992	3291.254395
3525.184570	3156.820313
3523.951172	3200.823242
3522.717773	3212.381836
3521.483398	3232.041260
3520.250000	3211.173584
3519.015625	3315.900391
3517.781250	3258.570801
3516.545898	3296.429443
3515.311523	3220.904541
3514.076172	3299.237305
3512.840820	3375.516846
3511.605469	3364.765137
3510.369141	3293.329346
3509.133789	3260.348877
3507.897461	3255.690918
3506.660156	3327.862305
3505.423828	3391.920898
3504.186523	3381.177246
3502.949219	3358.313721
3501.711914	3426.370361
3500.474609	3300.492432
3499.236328	3354.397461
3497.998047	3384.052734
3496.759766	3294.590820
3495.521484	3467.549561
3494.282227	3394.249023
3493.042969	3440.014648
3491.803711	3392.970459
3490.564453	3418.550293
3489.324219	3478.400146
3488.084961	3483.792969
3486.844727	3430.728271
3485.603516	3579.215820
3484.363281	3528.167725
3483.122070	3595.998047
3481.880859	3516.767090
3480.639648	3477.841797
3479.397461	3513.427979
3478.156250	3518.804932
3476.914063	3564.432861
3475.671875	3589.920410
3474.428711	3544.981689
3473.186523	3588.566895
3471.943359	3597.946045
3470.700195	3534.933594
3469.456055	3600.609863
3468.212891	3479.330078
3466.968750	3547.001221
3465.724609	3455.915771
3464.479492	3487.405762
3463.235352	3532.943359
3461.990234	3540.309326
3460.745117	3505.509766
3459.499023	3551.017578
3458.253906	3494.151855
3457.007813	3451.354004
3455.761719	3577.094482
3454.515625	3568.395996
3453.268555	3529.618652
3452.021484	3496.871094
3450.775391	3544.323730
3449.527344	3515.593994
3448.280273	3482.867188
3447.032227	3588.398926
3445.784180	3521.615723
3444.536133	3554.998779
3443.287109	3500.261475
3442.039063	3527.629150
3440.790039	3554.986572
3439.541016	3526.296631
3438.291016	3471.605713
3437.041992	3540.968994
3435.791992	3544.300293
3434.541992	3567.628174
3433.291016	3514.969238
3432.041016	3460.331055
3430.790039	3407.712158
3429.539063	3496.990723
3428.287109	3368.463867
3427.036133	3447.728271
3425.784180	3522.968018
3424.532227	3438.437744
3423.280273	3321.997070
3422.027344	3473.066162
3420.774414	3548.243652
3419.521484	3332.084473
3418.268555	3363.372559
3417.014648	3416.588135
3415.761719	3451.836426
3414.507813	3385.389648
3413.252930	3396.709473
3411.999023	3433.933838
3410.744141	3419.335938
3409.489258	3356.929443
3408.234375	3334.383789
3406.978516	3293.923096
3405.723633	3357.015381
3404.467773	3324.528320
3403.210938	3292.053467
3401.955078	3323.270020
3400.698242	3288.817871
3399.441406	3270.292236
3398.184570	3271.662109
3396.927734	3288.938965
3395.669922	3270.423340
3394.412109	3257.877686
3393.154297	3283.096436
3391.896484	3373.875244
3390.637695	3263.973633
3389.378906	3185.893066
3388.120117	3209.119629
3386.861328	3180.715332
3385.601563	3203.933838
3384.341797	3189.433838
3383.082031	3176.923584
3381.822266	3277.503662
3380.561523	3187.621338
3379.300781	3143.386719
3378.040039	3188.396240
3376.779297	3167.967529
3375.517578	3092.047852
3374.256836	3224.236084
3372.995117	3124.558350
3371.732422	3161.604248
3370.470703	3186.752441
3369.208008	3201.989990
3367.945313	3074.673828
3366.682617	3046.378418
3365.418945	2992.365723
3364.155273	3033.350830
3362.891602	3024.862305
3361.627930	3018.354736
3360.363281	3031.625244
3359.099609	2997.437744
3357.834961	3026.521484
3356.569336	2948.865723
3355.304688	3060.942627
3354.039063	2914.159912
3352.773438	3004.471924
3351.507813	2997.976807
3350.241211	2995.433350
3348.975586	2961.303467
3347.708984	2954.819824
3346.442383	2849.666016
3345.174805	2935.940430
3343.907227	3006.400391
3342.639648	3023.580566
3341.372070	2845.530518
3340.104492	2959.341797
3338.835938	2966.664795
3337.567383	2853.763916
3336.298828	2861.103760
3335.029297	2844.799805
3333.760742	2893.502197
3332.491211	2890.983154
3331.221680	2894.371826
3329.951172	2929.256592
3328.681641	2879.494629
3327.411133	2865.172607
3326.139648	2785.929688
3324.869141	2765.729248
3323.597656	2716.035645
3322.327148	2866.927979
3321.054688	2825.097656
3319.783203	2842.250977
3318.510742	2835.814941
3317.238281	2729.174072
3315.965820	2762.051270
3314.693359	2796.879883
3313.419922	2723.690186
3312.146484	2799.743164
3310.873047	2706.950439
3309.599609	2739.800049
3308.325195	2798.145996
3307.050781	2750.529053
3305.776367	2753.928711
3304.501953	2800.471680
3303.226563	2743.077393
3301.951172	2626.893555
3300.675781	2718.513672
3299.400391	2714.077148
3298.124023	2782.134277
3296.847656	2707.167480
3295.571289	2628.312012
3294.294922	2696.346436
3293.017578	2875.947021
3291.740234	2654.214844
3290.462891	2745.689209
3289.185547	2672.770752
3287.907227	2713.343506
3286.628906	2665.885254
3285.350586	2729.909912
3284.072266	2643.363281
3282.792969	2629.176514
3281.513672	2763.529541
3280.234375	2657.485352
3278.955078	2725.357422
3277.674805	2607.640869
3276.394531	2654.013916
3275.114258	2674.986328
3273.833984	2660.811279
3272.552734	2605.653809
3271.272461	2644.186035
3269.990234	2655.388428
3268.708984	2680.241211
3267.426758	2627.071777
3266.145508	2632.420898
3264.862305	2600.725830
3263.580078	2596.331543
3262.296875	2545.167236
3261.014648	2626.516846
3259.731445	2592.898682
3258.447266	2627.463135
3257.164063	2582.173096
3255.879883	2647.877686
3254.595703	2520.843750
3253.310547	2508.685547
3252.026367	2587.987061
3250.741211	2618.620850
3249.456055	2485.853760
3248.169922	2604.008545
3246.884766	2471.294434
3245.598633	2488.318848
3244.312500	2530.604004
3243.025391	2516.518066
3241.739258	2523.809326
3240.452148	2500.017334
3239.165039	2557.804443
3237.876953	2448.576904
3236.589844	2568.476318
3235.301758	2404.939209
3234.013672	2468.521973
3232.724609	2429.244629
3231.436523	2471.458984
3230.147461	2465.168213
3228.857422	2530.629639
3227.568359	2408.001221
3226.278320	2413.356445
3224.989258	2430.338135
3223.698242	2365.929688
3222.408203	2427.472168
3221.117188	2411.512695
3219.826172	2385.876221
3218.535156	2428.017090
3217.244141	2315.273926
3215.952148	2419.347168
3214.660156	2366.636963
3213.368164	2387.466553
3212.076172	2323.176025
3210.783203	2407.827881
3209.490234	2339.690430
3208.197266	2484.237549
3206.903320	2348.460205
3205.610352	2328.686035
3204.316406	2276.072510
3203.022461	2246.660645
3201.727539	2354.389893
3200.432617	2365.525635
3199.137695	2287.846436
3197.842773	2302.851074
3196.547852	2250.302246
3195.251953	2309.688232
3193.956055	2288.025146
3192.660156	2256.726074
3191.363281	2231.224121
3190.067383	2277.071289
3188.770508	2193.743652
3187.472656	2270.417725
3186.175781	2289.252930
3184.877930	2290.741211
3183.580078	2286.450195
3182.282227	2183.940918
3180.983398	2156.565674
3179.684570	2265.885498
3178.385742	2182.686523
3177.086914	2214.983398
3175.788086	2168.382324
3174.488281	2096.791504
3173.188477	2231.020508
3171.887695	2136.369873
3170.587891	2107.122070
3169.287109	2104.796143
3167.986328	2092.862061
3166.685547	2165.476074
3165.383789	2138.166016
3164.082031	2155.042725
3162.780273	2087.417480
3161.478516	2040.937866
3160.175781	2078.938721
3158.873047	2111.167480
3157.570313	2172.166748
3156.267578	2173.668701
3154.963867	2102.280762
3153.660156	2090.371094
3152.356445	2086.135254
3151.052734	2127.910156
3149.748047	2031.668579
3148.443359	2050.441895
3147.138672	2063.459961
3145.833984	2045.824097
3144.528320	2112.463623
3143.222656	1974.190430
3141.916992	2023.587769
3140.610352	2040.426270
3139.304688	2030.466064
3137.998047	2047.296631
3136.691406	1924.472168
3135.383789	2000.607788
3134.076172	1893.137207
3132.768555	1999.839844
3131.460938	1997.544312
3130.153320	1962.760010
3128.844727	2033.082397
3127.536133	2011.677368
3126.227539	1919.608276
3124.917969	1947.885010
3123.608398	1991.425415
3122.298828	1981.498047
3120.989258	1988.751831
3119.678711	1934.939453
3118.369141	1858.253540
3117.057617	2010.495728
3115.747070	1899.496216
3114.436523	1981.121826
3113.125000	1952.145264
3111.813477	1995.608765
3110.500977	1945.677979
3109.189453	1954.830566
3107.876953	1883.972534
3106.564453	1860.755615
3105.250977	1938.469849
3103.937500	1993.308228
3102.625000	1876.813721
3101.310547	1830.778564
3099.997070	1948.395752
3098.682617	2001.287354
3097.368164	1930.528442
3096.053711	1901.632690
3094.739258	1863.241577
3093.423828	1902.802124
3092.108398	1839.718384
3090.792969	1915.371216
3089.476563	1954.898560
3088.160156	1945.025269
3086.843750	1819.312134
3085.527344	1817.063232
3084.210938	1871.765503
3082.893555	1825.853760
3081.576172	1863.454590
3080.257813	1931.396729
3078.940430	1931.024902
3077.622070	1843.413452
3076.303711	1917.008423
3074.984375	1988.679199
3073.666016	1906.793091
3072.346680	1906.425903
3071.027344	1896.585327
3069.707031	1917.057617
3068.387695	1831.460083
3067.067383	1906.851196
3065.747070	1897.017700
3064.425781	1898.545044
3063.104492	1866.006714
3061.783203	1892.137085
3060.461914	1916.365601
3059.140625	1861.145386
3057.818359	1887.261353
3056.496094	1807.489136
3055.173828	1827.934204
3053.850586	1871.050659
3052.527344	1919.819214
3051.204102	1979.904175
3049.880859	1805.747559
3048.556641	1824.284302
3047.233398	1897.569580
3045.909180	1844.346191
3044.583984	1804.355103
3043.259766	1841.747803
3041.934570	1826.299194
3040.608398	1856.127930
3039.283203	1925.549805
3037.957031	1900.665771
3036.630859	1858.824219
3035.304688	1909.356689
3033.978516	1925.948608
3032.651367	1929.345215
3031.324219	1966.648071
3029.997070	1887.165771
3028.668945	1982.836304
3027.341797	1976.805542
3026.013672	2008.423218
3024.684570	2034.382690
3023.356445	2026.463623
3022.027344	2125.776855
3020.698242	2082.106689
3019.368164	2138.119385
3018.039063	2147.107178
3016.708984	2077.141113
