#Wave		#Intensity
4001.644531	82.985794
4000.500000	63.331264
3999.354492	69.869957
3998.209961	74.223213
3997.064453	61.113792
3995.918945	65.467049
3994.772461	54.545868
3993.626953	95.983116
3992.480469	23.991377
3991.333984	63.238388
3990.187500	74.127953
3989.040039	43.596676
3987.893555	52.306412
3986.746094	21.790339
3985.598633	98.038528
3984.451172	54.455853
3983.302734	54.445858
3982.154297	80.565079
3981.006836	60.956974
3979.857422	69.652321
3978.708984	39.172237
3977.560547	65.275078
3976.411133	32.631546
3975.261719	82.651405
3974.112305	78.286949
3972.961914	60.878666
3971.811523	71.736679
3970.662109	58.682865
3969.511719	36.941685
3968.360352	43.452824
3967.209961	54.306049
3966.058594	69.498970
3964.907227	49.943207
3963.755859	54.276123
3962.604492	71.631317
3961.452148	67.277657
3960.299805	67.265297
3959.147461	39.050091
3957.995117	62.902470
3956.841797	82.408775
3955.689453	26.019039
3954.536133	23.846403
3953.382813	101.870445
3952.228516	32.505867
3951.075195	47.666504
3949.920898	62.821564
3948.766602	45.483112
3947.612305	67.129395
3946.458008	28.145857
3945.302734	30.305349
3944.147461	62.763821
3942.992188	69.243889
3941.836914	80.048515
3940.680664	69.218414
3939.525391	41.090874
3938.369141	38.921032
3937.211914	51.885162
3936.055664	99.428261
3934.898438	77.799103
3933.742188	82.106163
3932.584961	64.808723
3931.426758	56.157223
3930.269531	66.944366
3929.111328	79.886627
3927.953125	45.332714
3926.794922	94.965340
3925.636719	84.158333
3924.477539	75.512802
3923.319336	49.613560
3922.160156	28.037283
3921.000000	43.126339
3919.840820	58.209835
3918.680664	71.132248
3917.520508	53.878143
3916.360352	56.022945
3915.200195	99.099258
3914.040039	81.849525
3912.878906	40.917225
3911.717773	86.125648
3910.556641	71.040573
3909.394531	49.504002
3908.233398	66.710487
3907.071289	88.213737
3905.909180	70.988220
3904.746094	66.673607
3903.583984	94.616066
3902.420898	70.948967
3901.257813	66.636749
3900.094727	66.624458
3898.931641	60.165836
3897.767578	60.154743
3896.603516	66.587616
3895.439453	42.951828
3894.275391	42.943909
3893.111328	55.816784
3891.946289	70.831314
3890.781250	51.504181
3889.616211	51.494682
3888.451172	68.646912
3887.285156	60.054966
3886.119141	57.899460
3884.953125	25.728346
3883.787109	21.436331
3882.620117	66.440369
3881.454102	79.285156
3880.287109	70.700737
3879.120117	74.971794
3877.952148	44.974773
3876.785156	64.237816
3875.617188	49.239902
3874.449219	62.073631
3873.281250	72.762543
3872.112305	59.911034
3870.944336	55.621403
3869.775391	79.138916
3868.606445	87.678284
3867.436523	49.176292
3866.267578	76.957375
3865.097656	87.629707
3863.927734	76.928947
3862.757813	51.276493
3861.587891	42.722515
3860.416992	42.714622
3859.246094	81.142792
3858.075195	72.588028
3856.904297	72.574615
3855.732422	76.829514
3854.560547	81.082832
3853.388672	81.067848
3852.216797	49.058311
3851.044922	59.712124
3849.872070	66.097633
3848.699219	55.426476
3847.526367	53.284832
3846.353516	78.846977
3845.179688	70.309975
3844.005859	76.687607
3842.832031	51.115620
3841.658203	55.365013
3840.484375	53.225742
3839.309570	44.701355
3838.134766	59.590782
3836.959961	72.346855
3835.785156	70.206017
3834.609375	93.590698
3833.434570	78.686714
3832.258789	80.798424
3831.082031	53.147026
3829.906250	82.894012
3828.729492	74.378296
3827.552734	67.990433
3826.375977	63.729233
3825.199219	48.850037
3824.021484	48.840992
3822.844727	65.816978
3821.666992	74.295738
3820.489258	63.670269
3819.310547	65.780434
3818.131836	38.188015
3816.954102	59.392582
3815.774414	97.555458
3814.595703	82.694748
3813.416992	42.399708
3812.237305	72.066154
3811.057617	59.337605
3809.877930	101.702766
3808.697266	72.026115
3807.516602	69.894745
3806.336914	71.999428
3805.155273	65.634369
3803.974609	65.622208
3802.792969	52.911331
3801.612305	44.437283
3800.430664	61.354397
3799.248047	23.268044
3798.066406	103.629349
3796.883789	42.289852
3795.701172	71.879425
3794.518555	73.979805
3793.335938	54.946239
3792.152344	61.274826
3790.968750	67.601067
3789.785156	76.037094
3788.601563	65.464241
3787.417969	67.563461
3786.233398	61.218029
3785.048828	61.206676
3783.864258	86.517525
3782.678711	42.195843
3781.494141	65.391418
3780.308594	78.033348
3779.123047	75.910248
3777.937500	59.030350
3776.750977	48.480217
3775.564453	67.438225
3774.377930	71.639809
3773.191406	75.839844
3772.004883	84.250847
3770.817383	54.752888
3769.629883	33.687828
3768.442383	58.942757
3767.254883	63.141232
3766.066406	56.816555
3764.878906	75.741341
3763.690430	65.209602
3762.500977	69.403778
3761.312500	42.055084
3760.123047	46.252003
3758.933594	75.671036
3757.744141	58.844318
3756.554688	60.934582
3755.364258	56.721657
3754.173828	102.920181
3752.983398	75.600777
3751.792969	54.590416
3750.602539	37.786343
3749.411133	88.151749
3748.219727	33.575378
3747.028320	54.549847
3745.835938	69.223473
3744.644531	50.334988
3743.452148	75.488449
3742.259766	96.439529
3741.067383	85.940994
3739.874023	52.393299
3738.680664	79.623009
3737.487305	62.848583
3736.293945	60.742332
3735.100586	79.578598
3733.906250	58.625957
3732.711914	41.867893
3731.517578	89.999229
3730.323242	60.685863
3729.127930	58.582348
3727.932617	46.020424
3726.737305	85.749382
3725.541992	60.640717
3724.345703	45.994740
3723.150391	66.888992
3721.954102	60.606869
3720.757813	60.595589
3719.560547	56.406082
3718.364258	64.750481
3717.166992	83.533463
3715.969727	52.198692
3714.771484	52.188976
3713.574219	70.963791
3712.375977	58.429890
3711.177734	39.641472
3709.979492	25.032055
3708.780273	64.654099
3707.582031	41.704556
3706.382813	47.951305
3705.183594	93.800301
3703.983398	70.858131
3702.784180	68.761261
3701.583984	70.831734
3700.383789	45.823761
3699.182617	39.567692
3697.982422	35.396076
3696.781250	56.206821
3695.580078	39.545578
3694.378906	58.266830
3693.177734	47.853119
3691.975586	68.646027
3690.773438	87.351379
3689.571289	89.414505
3688.369141	56.133526
3687.166016	56.123058
3685.962891	47.799618
3684.759766	66.491417
3683.556641	54.014202
3682.352539	60.235374
3681.149414	64.377525
3679.945313	60.212906
3678.740234	78.884956
3677.536133	20.755327
3676.331055	43.578056
3675.126953	62.242748
3673.920898	43.561794
3672.715820	76.737411
3671.510742	49.766335
3670.304688	64.269516
3669.098633	64.257523
3667.891602	68.390404
3666.685547	66.305588
3665.478516	55.934898
3664.271484	24.855314
3663.064453	37.276012
3661.857422	74.538109
3660.649414	51.752911
3659.441406	66.231354
3658.233398	18.624090
3657.025391	16.551657
3655.816406	68.262833
3654.607422	33.090950
3653.398438	62.033939
3652.189453	64.089767
3650.980469	74.412918
3649.770508	37.199509
3648.560547	45.457573
3647.350586	72.305359
3646.139648	76.422806
3644.929688	41.301907
3643.718750	66.070702
3642.507813	35.093502
3641.295898	55.726322
3640.084961	80.478531
3638.873047	74.273987
3637.661133	66.008980
3636.449219	63.934246
3635.236328	47.426216
3634.023438	41.232479
3632.810547	49.469723
3631.597656	68.008148
3630.384766	80.358238
3629.170898	28.841152
3627.957031	49.432728
3626.743164	90.609718
3625.529297	47.355312
3624.314453	80.283119
3623.099609	32.930504
3621.884766	65.848686
3620.669922	65.836365
3619.454102	65.824043
3618.239258	65.811729
3617.023438	45.237095
3615.806641	49.340324
3614.590820	80.163017
3613.374023	71.927704
3612.157227	43.148544
3610.940430	55.466316
3609.723633	57.509857
3608.505859	98.569870
3607.288086	43.116245
3606.070313	51.319252
3604.852539	82.095428
3603.633789	49.248032
3602.415039	57.445278
3601.196289	82.049309
3599.977539	73.830551
3598.758789	49.211147
3597.539063	61.502411
3596.319336	65.590279
3595.099609	61.479370
3593.878906	75.810349
3592.659180	47.116520
3591.438477	51.204014
3590.217773	77.815514
3588.996094	36.853073
3587.775391	81.880371
3586.553711	65.492020
3585.332031	57.294773
3584.109375	71.605042
3582.887695	34.773071
3581.665039	51.127281
3580.442383	69.520065
3579.219727	73.595680
3577.996094	77.669762
3576.773438	34.740482
3575.549805	53.122540
3574.325195	69.454910
3573.101563	79.653923
3571.876953	75.554932
3570.652344	53.082695
3569.427734	95.939178
3568.203125	63.267159
3566.977539	59.174301
3565.752930	42.842316
3564.526367	71.390457
3563.300781	61.180340
3562.075195	50.974049
3560.848633	44.848743
3559.622070	77.451469
3558.395508	59.096607
3557.167969	36.673767
3555.940430	52.963272
3554.712891	77.393326
3553.485352	46.834534
3552.257813	63.112953
3551.029297	65.136620
3549.800781	50.878429
3548.572266	71.216423
3547.343750	75.271797
3546.114258	61.019722
3544.884766	65.075478
3543.655273	73.196159
3542.425781	65.051025
3541.195313	28.454477
3539.965820	65.026588
3538.734375	50.792473
3537.503906	65.002151
3536.273438	83.268349
3535.041992	67.008270
3533.810547	64.965508
3532.579102	71.042664
3531.346680	56.823448
3530.115234	44.638603
3528.882813	60.859379
3527.650391	62.876198
3526.416992	46.641312
3525.184570	50.687546
3523.951172	36.488171
3522.717773	64.855659
3521.483398	70.922531
3520.250000	76.987122
3519.015625	50.639896
3517.781250	42.529510
3516.545898	58.720181
3515.311523	87.051476
3514.076172	62.746231
3512.840820	58.687042
3511.605469	78.909103
3510.369141	70.802536
3509.133789	68.766663
3507.897461	84.931061
3506.660156	78.849716
3505.423828	54.577988
3504.186523	82.862083
3502.949219	36.371628
3501.711914	92.932213
3500.474609	66.656212
3499.236328	82.799698
3497.998047	111.051849
3496.759766	92.862236
3495.521484	74.679474
3494.282227	60.539520
3493.042969	50.440098
3491.803711	68.585609
3490.564453	80.673752
3489.324219	58.477451
3488.084961	84.675522
3486.844727	74.581047
3485.603516	60.459724
3484.363281	56.418446
3483.122070	80.582588
3481.880859	94.666695
3480.639648	42.289913
3479.397461	70.469902
3478.156250	54.352249
3476.914063	40.253334
3475.671875	62.380905
3474.428711	66.392960
3473.186523	48.276684
3471.943359	42.234135
3470.700195	82.441566
3469.456055	54.280548
3468.212891	72.360413
3466.968750	52.250443
3465.724609	102.471924
3464.479492	64.283981
3463.235352	68.288841
3461.990234	62.251610
3460.745117	70.270813
3459.499023	34.125099
3458.253906	48.167519
3457.007813	46.151825
3455.761719	70.217781
3454.515625	94.274658
3453.268555	42.114769
3452.021484	48.122078
3450.775391	62.145950
3449.527344	60.129887
3448.280273	64.126434
3447.032227	86.153633
3445.784180	82.130974
3444.536133	62.087299
3443.287109	72.087769
3442.039063	64.065910
3440.790039	84.070625
3439.541016	64.041710
3438.291016	64.029617
3437.041992	92.025185
3435.791992	48.004066
3434.541992	75.992081
3433.291016	87.974205
3432.041016	59.971077
3430.790039	59.959743
3429.539063	71.938095
3428.287109	59.937080
3427.036133	63.920803
3425.784180	45.934391
3424.532227	55.909557
3423.280273	45.917027
3422.027344	79.840599
3420.774414	73.838593
3419.521484	33.919422
3418.268555	65.831139
3417.014648	57.840664
3415.761719	71.788620
3414.507813	51.837532
3413.252930	39.867481
3411.999023	93.670860
3410.744141	67.749084
3409.489258	75.705238
3408.234375	47.804787
3406.978516	71.693611
3405.723633	63.715595
3404.467773	57.731331
3403.210938	71.652916
3401.955078	67.659393
3400.698242	53.719349
3399.441406	45.752262
3398.184570	67.620979
3396.927734	49.711895
3395.669922	49.702480
3394.412109	71.558022
3393.154297	67.569778
3391.896484	53.648193
3390.637695	63.571003
3389.378906	87.393578
3388.120117	73.476135
3386.861328	71.476746
3385.601563	65.507942
3384.341797	61.526108
3383.082031	47.624088
3381.822266	31.743378
3380.561523	55.540386
3379.300781	47.597023
3378.040039	63.450672
3376.779297	49.561443
3375.517578	43.605804
3374.256836	55.487778
3372.995117	41.607944
3371.732422	79.238205
3370.470703	53.475647
3369.208008	69.307144
3367.945313	59.394855
3366.682617	79.178123
3365.418945	63.330490
3364.155273	92.999016
3362.891602	59.349815
3361.627930	81.096031
3360.363281	49.439419
3359.099609	39.544033
3357.834961	35.582878
3356.569336	79.058060
3355.304688	25.688995
3354.039063	47.416840
3352.773438	45.432514
3351.507813	57.273602
3350.241211	51.339005
3348.975586	78.968094
3347.708984	61.188652
3346.442383	69.070854
3345.174805	71.030815
3343.907227	45.372185
3342.639648	106.505775
3341.372070	92.681870
3340.104492	57.175827
3338.835938	41.395321
3337.567383	57.154114
3336.298828	80.788742
3335.029297	43.341824
3333.760742	65.000389
3332.491211	29.540018
3331.221680	64.975693
3329.951172	55.120419
3328.681641	49.205307
3327.411133	45.260281
3326.139648	35.414360
3324.869141	66.881081
3323.597656	66.868370
3322.327148	80.620056
3321.054688	49.149227
3319.783203	80.589409
3318.510742	55.026211
3317.238281	43.226658
3315.965820	51.076340
3314.693359	74.635841
3313.419922	64.803009
3312.146484	66.754044
3310.873047	74.593269
3309.599609	56.915615
3308.325195	47.093620
3307.050781	80.436295
3305.776367	54.921658
3304.501953	54.911209
3303.226563	35.293346
3301.951172	78.414734
3300.675781	64.679848
3299.400391	60.748295
3298.124023	68.573730
3296.847656	66.601807
3295.571289	54.838108
3294.294922	86.157768
3293.017578	39.155167
3291.740234	68.508499
3290.462891	43.054283
3289.185547	58.699211
3287.907227	35.212818
3286.628906	58.676857
3285.350586	54.754639
3284.072266	82.116318
3282.792969	68.417229
3281.513672	72.313011
3280.234375	70.345200
3278.955078	48.841530
3277.674805	83.991425
3276.394531	56.634590
3275.114258	54.671253
3273.833984	54.660835
3272.552734	40.987816
3271.272461	66.348579
3269.990234	87.797554
3268.708984	52.668495
3267.426758	54.608768
3266.145508	46.798592
3264.862305	60.436657
3263.580078	50.679146
3262.296875	54.567135
3261.014648	50.659824
3259.731445	89.611824
3258.447266	62.326775
3257.164063	54.525524
3255.879883	68.143906
3254.595703	79.810493
3253.310547	66.171692
3252.026367	91.455177
3250.741211	25.291286
3249.456055	44.737587
3248.169922	56.397499
3246.884766	36.943035
3245.598633	69.983971
3244.312500	50.534332
3243.025391	73.843773
3241.739258	54.400818
3240.452148	50.505402
3239.165039	69.917206
3237.876953	69.903862
3236.589844	69.890511
3235.301758	54.348907
3234.013672	65.982506
3232.724609	67.910194
3231.436523	29.098810
3230.147461	65.944710
3228.857422	79.506371
3227.568359	83.368805
3226.278320	40.707218
3224.989258	50.389786
3223.698242	62.006348
3222.408203	65.869156
3221.117188	75.541367
3219.826172	38.731758
3218.535156	13.553525
3217.244141	94.856537
3215.952148	67.741722
3214.660156	71.598991
3213.368164	85.128471
3212.076172	65.768517
3210.783203	81.227928
3209.490234	46.407085
3208.197266	36.731918
3206.903320	54.120895
3205.610352	63.773144
3204.316406	67.625244
3203.022461	52.158070
3201.727539	71.462204
3200.432617	50.207077
3199.137695	63.712177
3197.842773	52.118172
3196.547852	69.477600
3195.251953	42.450409
3193.956055	94.530548
3192.660156	82.939507
3191.363281	53.996784
3190.067383	55.914536
3188.770508	63.614708
3187.472656	61.675182
3186.175781	88.641106
3184.877930	52.018513
3183.580078	69.344742
3182.282227	40.443352
3180.983398	78.945709
3179.684570	42.353001
3178.385742	50.043961
3177.086914	25.017189
3175.788086	80.809280
3174.488281	53.862537
3173.188477	94.241379
3171.887695	51.918976
3170.587891	88.437607
3169.287109	88.420662
3167.986328	46.123680
3166.685547	90.308235
3165.383789	67.237923
3164.082031	69.145752
3162.780273	65.291801
3161.478516	63.359310
3160.175781	65.266777
3158.873047	84.446693
3157.570313	70.998383
3156.267578	72.903275
3154.963867	84.398132
3153.660156	53.697605
3152.356445	70.943939
3151.052734	69.013298
3149.748047	88.166748
3148.443359	57.489025
3147.138672	76.637329
3145.833984	59.382534
3144.528320	45.964756
3143.222656	89.997047
3141.916992	51.690510
3140.610352	66.993355
3139.304688	74.635414
3137.998047	53.574120
3136.691406	91.823723
3135.383789	49.728302
3134.076172	57.367794
3132.768555	49.709213
3131.460938	64.991875
3130.153320	51.601284
3128.844727	78.342461
3127.536133	55.402321
3126.227539	84.042549
3124.917969	80.207031
3123.608398	70.645004
3122.298828	36.270195
3120.989258	62.983501
3119.678711	82.053650
3118.369141	32.433582
3117.057617	72.484665
3115.747070	41.956745
3114.436523	70.550056
3113.125000	64.817322
3111.813477	97.207298
3110.500977	51.452797
3109.189453	64.779961
3107.876953	51.433022
3106.564453	68.564178
3105.250977	60.934219
3103.937500	85.672272
3102.625000	62.814255
3101.310547	58.995983
3099.997070	60.887367
3098.682617	72.289848
3097.368164	79.883934
3096.053711	39.934284
3094.739258	87.458275
3093.423828	64.630638
3092.108398	64.618210
3090.792969	70.306282
3089.476563	53.194519
3088.160156	39.888214
3086.843750	74.063850
3085.527344	58.859940
3084.210938	53.153584
3082.893555	45.551445
3081.576172	49.337902
3080.257813	51.225651
3078.940430	73.978363
3077.622070	41.723351
3076.303711	39.819164
3074.984375	54.977783
3073.666016	60.653458
3072.346680	53.061558
3071.027344	24.630978
3069.707031	51.146793
3068.387695	64.394669
3067.067383	66.275856
3065.747070	34.078163
3064.425781	34.071598
3063.104492	70.022568
3061.783203	66.224800
3060.461914	69.995583
3059.140625	30.262527
3057.818359	69.968605
3056.496094	64.283089
3055.173828	68.051323
3053.850586	62.368355
3052.527344	64.245918
3051.204102	58.565868
3049.880859	50.999146
3048.556641	64.208763
3047.233398	41.538837
3045.909180	73.622826
3044.583984	64.171623
3043.259766	39.627773
3041.934570	73.580238
3040.608398	79.224968
3039.283203	88.639412
3037.957031	47.139526
3036.630859	77.293907
3035.304688	58.430462
3033.978516	86.686531
3032.651367	65.944420
3031.324219	73.466743
3029.997070	65.918968
3028.668945	52.724995
3027.341797	64.010849
3026.013672	48.940022
3024.684570	54.576408
3023.356445	45.157963
3022.027344	58.317772
3020.698242	78.995918
3019.368164	62.056236
3018.039063	67.684639
3016.708984	78.950157
3015.378906	48.864468
3014.047852	60.129269
3012.717773	69.511032
3011.386719	116.455452
3010.055664	76.995979
3008.723633	26.286230
3007.392578	73.211777
3006.060547	71.320770
3004.727539	86.318985
3003.395508	50.655697
3002.062500	50.645908
3000.729492	67.514824
2999.396484	80.627113
2998.062500	48.741856
2996.728516	86.218918
2995.394531	86.202248
2994.060547	67.449577
2992.725586	82.422432
2991.390625	59.931995
2990.055664	80.518044
2988.720703	74.886017
2987.384766	56.153648
2986.048828	72.985626
2984.712891	24.323833
2983.376953	72.957382
2982.040039	52.369526
2980.703125	93.498917
2979.366211	86.002357
2978.028320	69.162422
2976.690430	65.411247
2975.352539	71.004181
2974.014648	70.990440
2972.675781	69.108887
2971.336914	74.697845
2969.998047	87.752975
2968.659180	48.534801
2967.319336	69.055382
2965.979492	48.516003
2964.639648	78.356827
2963.299805	69.015266
2961.958984	74.596649
2960.618164	78.311310
2959.277344	68.975166
2957.935547	46.595814
2956.593750	70.811913
2955.251953	48.440868
2953.910156	57.745232
2952.567383	33.522991
2951.225586	74.481094
2949.881836	52.126663
2948.539063	42.810032
2947.195313	74.437798
2945.852539	65.120445
2944.507813	78.129387
2943.164063	59.515610
2941.819336	57.644566
2940.474609	79.943085
2939.129883	59.480991
2937.784180	85.487343
2936.439453	61.315983
2935.093750	50.157890
2933.747070	39.004128
2932.401367	72.422180
2931.054688	72.408134
2929.708008	85.387894
2928.360352	83.515427
2927.013672	63.088299
2925.666016	63.076057
2924.318359	59.354179
