*RAS_DATA_START
*RAS_HEADER_START
*DISP_FMT_X "%.2f"
*DISP_FMT_Y "%.0f"
*DISP_FULLSCALE "2113.2000000000"
*DISP_LINE_COLOR "255.0000000000"
*DISP_LINE_STYLE "0.0000000000"
*DISP_LINE_WIDTH "0.2500000000"
*DISP_NOTE "Collected Data-2"
*DISP_OFFSET_Y "0.0000000000"
*DISP_PEAKSEARCH_UNIT_Y "COUNTS"
*DISP_RANGE_BOTTOM "0.0000000000"
*DISP_RANGE_LEFT "2.0100000000"
*DISP_RANGE_LOGCUTOFF "0.0100000000"
*DISP_RANGE_RIGHT "69.9900000000"
*DISP_RANGE_TOP "2113.2000000000"
*DISP_SCALE_MODE_Y "0.0000000000"
*DISP_TAB_NAME "Theta/2-Theta"
*DISP_TITLE_Y "Intensity"
*DISP_UNIT_Y "COUNTS"
*DISP_WINDOW_NAME "MSG_MACROENGINE"
*FILE_COMMENT " "
*FILE_MD5 ""
*FILE_MEMO " "
*FILE_OPERATOR "Administrator"
*FILE_PART_ID "MEAS_PBEA_00223"
*FILE_SAMPLE "NaBr"
*FILE_TYPE "RAS_RAW"
*FILE_USERGROUP "System Manager"
*FILE_VERSION "1.0000000000"
*HW_ATTACHMENT_ID "ATT1031"
*HW_ATTACHMENT_NAME "6サンプルチェンジャ|ASC-6"
*HW_COUNTER_ID-0 "CUT0021"
*HW_COUNTER_ID-1 "CUT0020"
*HW_COUNTER_ID-2 "CUT0020"
*HW_COUNTER_ID-3 "CMC0021"
*HW_COUNTER_NAME-0 "SC-70|SC-70"
*HW_COUNTER_NAME-1 "None|None"
*HW_COUNTER_NAME-2 "None|None"
*HW_COUNTER_NAME-3 "検出器モノクロメータ|Detector monochromator"
*HW_COUNTER_SELECT_NAME "SC-70|SC-70"
*HW_ECP_HV "714.0000000000"
*HW_ECP_HV_UNIT "V"
*HW_GONIOMETER_ID "GON0070"
*HW_GONIOMETER_NAME "MiniFlex 300/600|MiniFlex 300/600"
*HW_GONIOMETER_RADIUS-0 "79.0"
*HW_GONIOMETER_RADIUS-1 "91.5"
*HW_GONIOMETER_RADIUS-2 "150.0"
*HW_GONIOMETER_RADIUS-3 "0"
*HW_GONIOMETER_RADIUS-4 "103.4"
*HW_GONIOMETER_RADIUS-5 "150.0"
*HW_GONIOMETER_RADIUS-6 "46.6"
*HW_GONIOMETER_RADIUS-7 "160.0"
*HW_I_OPT_ID-0 "ISL0021"
*HW_I_OPT_ID-1 "ISO0021"
*HW_I_OPT_NAME-0 "発散スリット|Divergence slit"
*HW_I_OPT_NAME-1 "入射平行スリット|Incident parallel slit"
*HW_R_ATTENUATER_AUTOMODE "0"
*HW_R_OPT_ID-0 "RSS0021"
*HW_R_OPT_ID-1 "RSO0021"
*HW_R_OPT_ID-2 "RRS0021"
*HW_R_OPT_NAME-0 "散乱スリット|Scattering slit"
*HW_R_OPT_NAME-1 "受光平行スリット|Receiving soller slit"
*HW_R_OPT_NAME-2 "受光スリット|Receiving slit"
*HW_SAMPLE_HOLDER_ID "SMP0000"
*HW_SAMPLE_HOLDER_NAME "無し|None"
*HW_XG_CURRENT_MAX "50"
*HW_XG_CURRENT_MIN "2"
*HW_XG_CURRENT_RESOLUTION "2"
*HW_XG_CURRENT_UNIT "mA"
*HW_XG_FOCUS "1mm x 10mm"
*HW_XG_FOCUS_TYPE "Normal"
*HW_XG_ID "1062"
*HW_XG_NAME "300W/600W 封入管-A|300W/600W Sealed tube-A"
*HW_XG_TARGET_ATOMIC_NUMBER "29.0000000000"
*HW_XG_TARGET_NAME "Cu"
*HW_XG_TYPE "Compact"
*HW_XG_VOLTAGE_MAX "60"
*HW_XG_VOLTAGE_MIN "20"
*HW_XG_VOLTAGE_RESOLUTION "2"
*HW_XG_VOLTAGE_UNIT "kV"
*HW_XG_WATT_MAX "2.000"
*HW_XG_WATT_UNIT "kW"
*HW_XG_WAVE_LENGTH_ALPHA1 "1.540593"
*HW_XG_WAVE_LENGTH_ALPHA2 "1.544414"
*HW_XG_WAVE_LENGTH_BETA "1.392250"
*MEAS_COND_AXIS_NAME-0 "Theta/2-Theta"
*MEAS_COND_AXIS_NAME-1 "Spin"
*MEAS_COND_AXIS_NAME-2 "Change"
*MEAS_COND_AXIS_NAME-3 "Soller(inc.)"
*MEAS_COND_AXIS_NAME-4 "IHS"
*MEAS_COND_AXIS_NAME-5 "DS"
*MEAS_COND_AXIS_NAME-6 "SS"
*MEAS_COND_AXIS_NAME-7 "Soller(rec.)"
*MEAS_COND_AXIS_NAME-8 "RS"
*MEAS_COND_AXIS_NAME-9 "Filter"
*MEAS_COND_AXIS_NAME-10 "Monochromator"
*MEAS_COND_AXIS_NAME-11 "HV"
*MEAS_COND_AXIS_NAME-12 "PHA"
*MEAS_COND_AXIS_NAME_INTERNAL-0 "TwoThetaTheta"
*MEAS_COND_AXIS_NAME_INTERNAL-1 "Spin"
*MEAS_COND_AXIS_NAME_INTERNAL-2 "Change"
*MEAS_COND_AXIS_NAME_INTERNAL-3 "IncidentSollerSlit"
*MEAS_COND_AXIS_NAME_INTERNAL-4 "IncidentAxdSlit"
*MEAS_COND_AXIS_NAME_INTERNAL-5 "IncidentSlitBox"
*MEAS_COND_AXIS_NAME_INTERNAL-6 "ReceivingSlitBox1"
*MEAS_COND_AXIS_NAME_INTERNAL-7 "ReceivingSollerSlit"
*MEAS_COND_AXIS_NAME_INTERNAL-8 "ReceivingSlitBox2"
*MEAS_COND_AXIS_NAME_INTERNAL-9 "Filter"
*MEAS_COND_AXIS_NAME_INTERNAL-10 "CounterMonochromator"
*MEAS_COND_AXIS_NAME_INTERNAL-11 "HV"
*MEAS_COND_AXIS_NAME_INTERNAL-12 "PHA"
*MEAS_COND_AXIS_NAME_MAGICNO-0 "268632064.0000000000"
*MEAS_COND_AXIS_NAME_MAGICNO-1 "16842752.0000000000"
*MEAS_COND_AXIS_NAME_MAGICNO-2 "16842752.0000000000"
*MEAS_COND_AXIS_NAME_MAGICNO-3 "20971521.0000000000"
*MEAS_COND_AXIS_NAME_MAGICNO-4 "22020097.0000000000"
*MEAS_COND_AXIS_NAME_MAGICNO-5 "22020097.0000000000"
*MEAS_COND_AXIS_NAME_MAGICNO-6 "23068673.0000000000"
*MEAS_COND_AXIS_NAME_MAGICNO-7 "20971521.0000000000"
*MEAS_COND_AXIS_NAME_MAGICNO-8 "23068673.0000000000"
*MEAS_COND_AXIS_NAME_MAGICNO-9 "20971521.0000000000"
*MEAS_COND_AXIS_NAME_MAGICNO-10 "20971521.0000000000"
*MEAS_COND_AXIS_NAME_MAGICNO-11 "0.0000000000"
*MEAS_COND_AXIS_NAME_MAGICNO-12 "0.0000000000"
*MEAS_COND_AXIS_OFFSET-0 "0.0000000000"
*MEAS_COND_AXIS_OFFSET-1 "-"
*MEAS_COND_AXIS_OFFSET-2 "-"
*MEAS_COND_AXIS_OFFSET-3 "-"
*MEAS_COND_AXIS_OFFSET-4 "-"
*MEAS_COND_AXIS_OFFSET-5 "-"
*MEAS_COND_AXIS_OFFSET-6 "-"
*MEAS_COND_AXIS_OFFSET-7 "-"
*MEAS_COND_AXIS_OFFSET-8 "-"
*MEAS_COND_AXIS_OFFSET-9 "-"
*MEAS_COND_AXIS_OFFSET-10 "-"
*MEAS_COND_AXIS_OFFSET-11 "-"
*MEAS_COND_AXIS_OFFSET-12 "-"
*MEAS_COND_AXIS_POSITION-0 "70.0000000000"
*MEAS_COND_AXIS_POSITION-1 "0.0000000000"
*MEAS_COND_AXIS_POSITION-2 "4.0000000000"
*MEAS_COND_AXIS_POSITION-3 "2.5deg"
*MEAS_COND_AXIS_POSITION-4 "10.0mm"
*MEAS_COND_AXIS_POSITION-5 "1.250deg"
*MEAS_COND_AXIS_POSITION-6 "13.0mm(Open)"
*MEAS_COND_AXIS_POSITION-7 "5.0deg"
*MEAS_COND_AXIS_POSITION-8 "13.0mm"
*MEAS_COND_AXIS_POSITION-9 "None"
*MEAS_COND_AXIS_POSITION-10 "None"
*MEAS_COND_AXIS_POSITION-11 "714.0000000000"
*MEAS_COND_AXIS_POSITION-12 "568.7500000000"
*MEAS_COND_AXIS_UNIT-0 "deg"
*MEAS_COND_AXIS_UNIT-1 ""
*MEAS_COND_AXIS_UNIT-2 ""
*MEAS_COND_AXIS_UNIT-3 ""
*MEAS_COND_AXIS_UNIT-4 ""
*MEAS_COND_AXIS_UNIT-5 ""
*MEAS_COND_AXIS_UNIT-6 ""
*MEAS_COND_AXIS_UNIT-7 ""
*MEAS_COND_AXIS_UNIT-8 ""
*MEAS_COND_AXIS_UNIT-9 ""
*MEAS_COND_AXIS_UNIT-10 ""
*MEAS_COND_AXIS_UNIT-11 "V"
*MEAS_COND_AXIS_UNIT-12 "mV"
*MEAS_COND_CORRECTION_SLIT_COUNTERMONO "None"
*MEAS_COND_CORRECTION_SLIT_DS "1.250deg"
*MEAS_COND_CORRECTION_SLIT_FILTER "None"
*MEAS_COND_CORRECTION_SLIT_IHS "10.0mm"
*MEAS_COND_CORRECTION_SLIT_RS "13.0mm"
*MEAS_COND_CORRECTION_SLIT_SOLLER_INC "2.5deg"
*MEAS_COND_CORRECTION_SLIT_SOLLER_REC "5.0deg"
*MEAS_COND_CORRECTION_SLIT_SS "13.0mm"
*MEAS_COND_COUNTER_CNTLOSS_CORR "0.0000000000"
*MEAS_COND_COUNTER_PHABASE "568.7500000000"
*MEAS_COND_COUNTER_PHAWINDOW "926.2500000000"
*MEAS_COND_COUNTER_PHA_UNIT "mV"
*MEAS_COND_COUNTER_TAUDIFF "0.2500000000"
*MEAS_COND_COUNTER_TAUINT "0.7500000000"
*MEAS_COND_IRRADIATION_MODE "OFF"
*MEAS_COND_IRRADIATION_WIDTH ""
*MEAS_COND_OPT_ATTR " "
*MEAS_COND_OPT_NAME ""
*MEAS_COND_UNSYMMETRIC_MODE "OFF"
*MEAS_COND_XG_CURRENT "15.0000000000"
*MEAS_COND_XG_VOLTAGE "40.0000000000"
*MEAS_COND_XG_WAVE_TYPE "Ka"
*MEAS_DATA_COUNT "3400.0000000000"
*MEAS_SCAN_AXIS_X "Theta/2-Theta"
*MEAS_SCAN_AXIS_X_INTERNAL "TwoThetaTheta"
*MEAS_SCAN_END_TIME "02/21/25 12:16:26"
*MEAS_SCAN_MODE "CONTINUOUS"
*MEAS_SCAN_MONITOR "0"
*MEAS_SCAN_RESOLUTION_X "0.0025"
*MEAS_SCAN_SPEED "2.0000"
*MEAS_SCAN_SPEED_UNIT "deg/min"
*MEAS_SCAN_SPEED_USER "2.0000"
*MEAS_SCAN_START "2.0100000000"
*MEAS_SCAN_START_TIME "02/21/25 11:42:10"
*MEAS_SCAN_STEP "0.0200000000"
*MEAS_SCAN_STOP "69.9900000000"
*MEAS_SCAN_UNIT_X "deg"
*MEAS_SCAN_UNIT_Y "counts"
*SLIT_SYSTEM "0"
*RAS_HEADER_END
*RAS_INT_START
2.0100 697.0000 1.0000
2.0300 726.0000 1.0000
2.0500 774.0000 1.0000
2.0700 523.0000 1.0000
2.0900 590.0000 1.0000
2.1100 593.0000 1.0000
2.1300 710.0000 1.0000
2.1500 564.0000 1.0000
2.1700 533.0000 1.0000
2.1900 665.0000 1.0000
2.2100 583.0000 1.0000
2.2300 553.0000 1.0000
2.2500 564.0000 1.0000
2.2700 625.0000 1.0000
2.2900 628.0000 1.0000
2.3100 614.0000 1.0000
2.3300 505.0000 1.0000
2.3500 548.0000 1.0000
2.3700 630.0000 1.0000
2.3900 672.0000 1.0000
2.4100 651.0000 1.0000
2.4300 599.0000 1.0000
2.4500 640.0000 1.0000
2.4700 574.0000 1.0000
2.4900 540.0000 1.0000
2.5100 617.0000 1.0000
2.5300 576.0000 1.0000
2.5500 527.0000 1.0000
2.5700 523.0000 1.0000
2.5900 447.0000 1.0000
2.6100 551.0000 1.0000
2.6300 539.0000 1.0000
2.6500 549.0000 1.0000
2.6700 573.0000 1.0000
2.6900 465.0000 1.0000
2.7100 517.0000 1.0000
2.7300 424.0000 1.0000
2.7500 455.0000 1.0000
2.7700 391.0000 1.0000
2.7900 535.0000 1.0000
2.8100 458.0000 1.0000
2.8300 646.0000 1.0000
2.8500 472.0000 1.0000
2.8700 507.0000 1.0000
2.8900 452.0000 1.0000
2.9100 436.0000 1.0000
2.9300 471.0000 1.0000
2.9500 443.0000 1.0000
2.9700 314.0000 1.0000
2.9900 418.0000 1.0000
3.0100 471.0000 1.0000
3.0300 431.0000 1.0000
3.0500 386.0000 1.0000
3.0700 334.0000 1.0000
3.0900 411.0000 1.0000
3.1100 408.0000 1.0000
3.1300 370.0000 1.0000
3.1500 296.0000 1.0000
3.1700 312.0000 1.0000
3.1900 363.0000 1.0000
3.2100 378.0000 1.0000
3.2300 306.0000 1.0000
3.2500 356.0000 1.0000
3.2700 320.0000 1.0000
3.2900 409.0000 1.0000
3.3100 305.0000 1.0000
3.3300 292.0000 1.0000
3.3500 351.0000 1.0000
3.3700 255.0000 1.0000
3.3900 259.0000 1.0000
3.4100 257.0000 1.0000
3.4300 332.0000 1.0000
3.4500 400.0000 1.0000
3.4700 258.0000 1.0000
3.4900 251.0000 1.0000
3.5100 218.0000 1.0000
3.5300 360.0000 1.0000
3.5500 242.0000 1.0000
3.5700 366.0000 1.0000
3.5900 322.0000 1.0000
3.6100 290.0000 1.0000
3.6300 288.0000 1.0000
3.6500 271.0000 1.0000
3.6700 234.0000 1.0000
3.6900 314.0000 1.0000
3.7100 221.0000 1.0000
3.7300 280.0000 1.0000
3.7500 224.0000 1.0000
3.7700 287.0000 1.0000
3.7900 261.0000 1.0000
3.8100 274.0000 1.0000
3.8300 239.0000 1.0000
3.8500 301.0000 1.0000
3.8700 236.0000 1.0000
3.8900 245.0000 1.0000
3.9100 306.0000 1.0000
3.9300 276.0000 1.0000
3.9500 251.0000 1.0000
3.9700 202.0000 1.0000
3.9900 271.0000 1.0000
4.0100 223.0000 1.0000
4.0300 167.0000 1.0000
4.0500 254.0000 1.0000
4.0700 206.0000 1.0000
4.0900 242.0000 1.0000
4.1100 191.0000 1.0000
4.1300 294.0000 1.0000
4.1500 292.0000 1.0000
4.1700 273.0000 1.0000
4.1900 250.0000 1.0000
4.2100 253.0000 1.0000
4.2300 252.0000 1.0000
4.2500 206.0000 1.0000
4.2700 227.0000 1.0000
4.2900 196.0000 1.0000
4.3100 230.0000 1.0000
4.3300 233.0000 1.0000
4.3500 193.0000 1.0000
4.3700 252.0000 1.0000
4.3900 251.0000 1.0000
4.4100 220.0000 1.0000
4.4300 240.0000 1.0000
4.4500 151.0000 1.0000
4.4700 209.0000 1.0000
4.4900 237.0000 1.0000
4.5100 232.0000 1.0000
4.5300 185.0000 1.0000
4.5500 254.0000 1.0000
4.5700 221.0000 1.0000
4.5900 285.0000 1.0000
4.6100 146.0000 1.0000
4.6300 194.0000 1.0000
4.6500 229.0000 1.0000
4.6700 212.0000 1.0000
4.6900 251.0000 1.0000
4.7100 186.0000 1.0000
4.7300 237.0000 1.0000
4.7500 259.0000 1.0000
4.7700 188.0000 1.0000
4.7900 222.0000 1.0000
4.8100 194.0000 1.0000
4.8300 178.0000 1.0000
4.8500 243.0000 1.0000
4.8700 249.0000 1.0000
4.8900 271.0000 1.0000
4.9100 190.0000 1.0000
4.9300 235.0000 1.0000
4.9500 207.0000 1.0000
4.9700 199.0000 1.0000
4.9900 232.0000 1.0000
5.0100 239.0000 1.0000
5.0300 230.0000 1.0000
5.0500 218.0000 1.0000
5.0700 192.0000 1.0000
5.0900 191.0000 1.0000
5.1100 194.0000 1.0000
5.1300 193.0000 1.0000
5.1500 199.0000 1.0000
5.1700 206.0000 1.0000
5.1900 194.0000 1.0000
5.2100 197.0000 1.0000
5.2300 193.0000 1.0000
5.2500 238.0000 1.0000
5.2700 156.0000 1.0000
5.2900 208.0000 1.0000
5.3100 144.0000 1.0000
5.3300 221.0000 1.0000
5.3500 164.0000 1.0000
5.3700 219.0000 1.0000
5.3900 170.0000 1.0000
5.4100 221.0000 1.0000
5.4300 182.0000 1.0000
5.4500 182.0000 1.0000
5.4700 160.0000 1.0000
5.4900 194.0000 1.0000
5.5100 183.0000 1.0000
5.5300 159.0000 1.0000
5.5500 178.0000 1.0000
5.5700 171.0000 1.0000
5.5900 184.0000 1.0000
5.6100 190.0000 1.0000
5.6300 176.0000 1.0000
5.6500 175.0000 1.0000
5.6700 175.0000 1.0000
5.6900 203.0000 1.0000
5.7100 160.0000 1.0000
5.7300 215.0000 1.0000
5.7500 162.0000 1.0000
5.7700 201.0000 1.0000
5.7900 213.0000 1.0000
5.8100 167.0000 1.0000
5.8300 199.0000 1.0000
5.8500 182.0000 1.0000
5.8700 185.0000 1.0000
5.8900 190.0000 1.0000
5.9100 177.0000 1.0000
5.9300 242.0000 1.0000
5.9500 204.0000 1.0000
5.9700 191.0000 1.0000
5.9900 193.0000 1.0000
6.0100 158.0000 1.0000
6.0300 173.0000 1.0000
6.0500 170.0000 1.0000
6.0700 218.0000 1.0000
6.0900 153.0000 1.0000
6.1100 199.0000 1.0000
6.1300 177.0000 1.0000
6.1500 200.0000 1.0000
6.1700 224.0000 1.0000
6.1900 160.0000 1.0000
6.2100 208.0000 1.0000
6.2300 177.0000 1.0000
6.2500 215.0000 1.0000
6.2700 170.0000 1.0000
6.2900 211.0000 1.0000
6.3100 181.0000 1.0000
6.3300 159.0000 1.0000
6.3500 165.0000 1.0000
6.3700 220.0000 1.0000
6.3900 199.0000 1.0000
6.4100 189.0000 1.0000
6.4300 206.0000 1.0000
6.4500 208.0000 1.0000
6.4700 179.0000 1.0000
6.4900 190.0000 1.0000
6.5100 169.0000 1.0000
6.5300 189.0000 1.0000
6.5500 205.0000 1.0000
6.5700 199.0000 1.0000
6.5900 150.0000 1.0000
6.6100 189.0000 1.0000
6.6300 192.0000 1.0000
6.6500 202.0000 1.0000
6.6700 168.0000 1.0000
6.6900 170.0000 1.0000
6.7100 159.0000 1.0000
6.7300 164.0000 1.0000
6.7500 172.0000 1.0000
6.7700 171.0000 1.0000
6.7900 162.0000 1.0000
6.8100 208.0000 1.0000
6.8300 164.0000 1.0000
6.8500 175.0000 1.0000
6.8700 201.0000 1.0000
6.8900 190.0000 1.0000
6.9100 178.0000 1.0000
6.9300 213.0000 1.0000
6.9500 194.0000 1.0000
6.9700 174.0000 1.0000
6.9900 182.0000 1.0000
7.0100 163.0000 1.0000
7.0300 157.0000 1.0000
7.0500 228.0000 1.0000
7.0700 196.0000 1.0000
7.0900 169.0000 1.0000
7.1100 160.0000 1.0000
7.1300 196.0000 1.0000
7.1500 185.0000 1.0000
7.1700 180.0000 1.0000
7.1900 143.0000 1.0000
7.2100 153.0000 1.0000
7.2300 124.0000 1.0000
7.2500 173.0000 1.0000
7.2700 177.0000 1.0000
7.2900 156.0000 1.0000
7.3100 158.0000 1.0000
7.3300 153.0000 1.0000
7.3500 170.0000 1.0000
7.3700 185.0000 1.0000
7.3900 210.0000 1.0000
7.4100 146.0000 1.0000
7.4300 163.0000 1.0000
7.4500 208.0000 1.0000
7.4700 150.0000 1.0000
7.4900 172.0000 1.0000
7.5100 152.0000 1.0000
7.5300 156.0000 1.0000
7.5500 161.0000 1.0000
7.5700 183.0000 1.0000
7.5900 190.0000 1.0000
7.6100 157.0000 1.0000
7.6300 166.0000 1.0000
7.6500 144.0000 1.0000
7.6700 178.0000 1.0000
7.6900 182.0000 1.0000
7.7100 189.0000 1.0000
7.7300 143.0000 1.0000
7.7500 205.0000 1.0000
7.7700 147.0000 1.0000
7.7900 170.0000 1.0000
7.8100 146.0000 1.0000
7.8300 181.0000 1.0000
7.8500 159.0000 1.0000
7.8700 169.0000 1.0000
7.8900 147.0000 1.0000
7.9100 194.0000 1.0000
7.9300 158.0000 1.0000
7.9500 174.0000 1.0000
7.9700 176.0000 1.0000
7.9900 145.0000 1.0000
8.0100 147.0000 1.0000
8.0300 158.0000 1.0000
8.0500 181.0000 1.0000
8.0700 157.0000 1.0000
8.0900 141.0000 1.0000
8.1100 154.0000 1.0000
8.1300 140.0000 1.0000
8.1500 156.0000 1.0000
8.1700 142.0000 1.0000
8.1900 135.0000 1.0000
8.2100 118.0000 1.0000
8.2300 127.0000 1.0000
8.2500 120.0000 1.0000
8.2700 176.0000 1.0000
8.2900 178.0000 1.0000
8.3100 164.0000 1.0000
8.3300 139.0000 1.0000
8.3500 130.0000 1.0000
8.3700 136.0000 1.0000
8.3900 120.0000 1.0000
8.4100 147.0000 1.0000
8.4300 111.0000 1.0000
8.4500 150.0000 1.0000
8.4700 139.0000 1.0000
8.4900 130.0000 1.0000
8.5100 149.0000 1.0000
8.5300 131.0000 1.0000
8.5500 140.0000 1.0000
8.5700 116.0000 1.0000
8.5900 126.0000 1.0000
8.6100 119.0000 1.0000
8.6300 123.0000 1.0000
8.6500 121.0000 1.0000
8.6700 149.0000 1.0000
8.6900 148.0000 1.0000
8.7100 118.0000 1.0000
8.7300 148.0000 1.0000
8.7500 135.0000 1.0000
8.7700 143.0000 1.0000
8.7900 159.0000 1.0000
8.8100 125.0000 1.0000
8.8300 138.0000 1.0000
8.8500 154.0000 1.0000
8.8700 135.0000 1.0000
8.8900 132.0000 1.0000
8.9100 128.0000 1.0000
8.9300 153.0000 1.0000
8.9500 125.0000 1.0000
8.9700 133.0000 1.0000
8.9900 131.0000 1.0000
9.0100 124.0000 1.0000
9.0300 153.0000 1.0000
9.0500 126.0000 1.0000
9.0700 144.0000 1.0000
9.0900 105.0000 1.0000
9.1100 131.0000 1.0000
9.1300 129.0000 1.0000
9.1500 145.0000 1.0000
9.1700 134.0000 1.0000
9.1900 124.0000 1.0000
9.2100 93.0000 1.0000
9.2300 144.0000 1.0000
9.2500 121.0000 1.0000
9.2700 145.0000 1.0000
9.2900 131.0000 1.0000
9.3100 100.0000 1.0000
9.3300 100.0000 1.0000
9.3500 124.0000 1.0000
9.3700 126.0000 1.0000
9.3900 109.0000 1.0000
9.4100 143.0000 1.0000
9.4300 109.0000 1.0000
9.4500 134.0000 1.0000
9.4700 122.0000 1.0000
9.4900 126.0000 1.0000
9.5100 126.0000 1.0000
9.5300 139.0000 1.0000
9.5500 155.0000 1.0000
9.5700 109.0000 1.0000
9.5900 144.0000 1.0000
9.6100 163.0000 1.0000
9.6300 132.0000 1.0000
9.6500 105.0000 1.0000
9.6700 143.0000 1.0000
9.6900 120.0000 1.0000
9.7100 104.0000 1.0000
9.7300 115.0000 1.0000
9.7500 104.0000 1.0000
9.7700 109.0000 1.0000
9.7900 145.0000 1.0000
9.8100 124.0000 1.0000
9.8300 106.0000 1.0000
9.8500 125.0000 1.0000
9.8700 131.0000 1.0000
9.8900 134.0000 1.0000
9.9100 89.0000 1.0000
9.9300 132.0000 1.0000
9.9500 96.0000 1.0000
9.9700 137.0000 1.0000
9.9900 114.0000 1.0000
10.0100 138.0000 1.0000
10.0300 145.0000 1.0000
10.0500 115.0000 1.0000
10.0700 124.0000 1.0000
10.0900 150.0000 1.0000
10.1100 107.0000 1.0000
10.1300 107.0000 1.0000
10.1500 114.0000 1.0000
10.1700 127.0000 1.0000
10.1900 114.0000 1.0000
10.2100 134.0000 1.0000
10.2300 128.0000 1.0000
10.2500 133.0000 1.0000
10.2700 107.0000 1.0000
10.2900 105.0000 1.0000
10.3100 112.0000 1.0000
10.3300 121.0000 1.0000
10.3500 116.0000 1.0000
10.3700 108.0000 1.0000
10.3900 92.0000 1.0000
10.4100 102.0000 1.0000
10.4300 120.0000 1.0000
10.4500 129.0000 1.0000
10.4700 102.0000 1.0000
10.4900 98.0000 1.0000
10.5100 105.0000 1.0000
10.5300 117.0000 1.0000
10.5500 126.0000 1.0000
10.5700 103.0000 1.0000
10.5900 97.0000 1.0000
10.6100 107.0000 1.0000
10.6300 106.0000 1.0000
10.6500 128.0000 1.0000
10.6700 112.0000 1.0000
10.6900 93.0000 1.0000
10.7100 115.0000 1.0000
10.7300 131.0000 1.0000
10.7500 110.0000 1.0000
10.7700 104.0000 1.0000
10.7900 111.0000 1.0000
10.8100 105.0000 1.0000
10.8300 109.0000 1.0000
10.8500 124.0000 1.0000
10.8700 122.0000 1.0000
10.8900 137.0000 1.0000
10.9100 110.0000 1.0000
10.9300 123.0000 1.0000
10.9500 102.0000 1.0000
10.9700 107.0000 1.0000
10.9900 100.0000 1.0000
11.0100 105.0000 1.0000
11.0300 95.0000 1.0000
11.0500 107.0000 1.0000
11.0700 91.0000 1.0000
11.0900 115.0000 1.0000
11.1100 101.0000 1.0000
11.1300 91.0000 1.0000
11.1500 79.0000 1.0000
11.1700 80.0000 1.0000
11.1900 100.0000 1.0000
11.2100 95.0000 1.0000
11.2300 92.0000 1.0000
11.2500 105.0000 1.0000
11.2700 95.0000 1.0000
11.2900 86.0000 1.0000
11.3100 84.0000 1.0000
11.3300 99.0000 1.0000
11.3500 97.0000 1.0000
11.3700 113.0000 1.0000
11.3900 76.0000 1.0000
11.4100 95.0000 1.0000
11.4300 80.0000 1.0000
11.4500 87.0000 1.0000
11.4700 77.0000 1.0000
11.4900 93.0000 1.0000
11.5100 86.0000 1.0000
11.5300 91.0000 1.0000
11.5500 83.0000 1.0000
11.5700 79.0000 1.0000
11.5900 84.0000 1.0000
11.6100 89.0000 1.0000
11.6300 90.0000 1.0000
11.6500 120.0000 1.0000
11.6700 90.0000 1.0000
11.6900 82.0000 1.0000
11.7100 99.0000 1.0000
11.7300 92.0000 1.0000
11.7500 100.0000 1.0000
11.7700 79.0000 1.0000
11.7900 87.0000 1.0000
11.8100 92.0000 1.0000
11.8300 82.0000 1.0000
11.8500 114.0000 1.0000
11.8700 84.0000 1.0000
11.8900 96.0000 1.0000
11.9100 94.0000 1.0000
11.9300 110.0000 1.0000
11.9500 97.0000 1.0000
11.9700 94.0000 1.0000
11.9900 100.0000 1.0000
12.0100 95.0000 1.0000
12.0300 96.0000 1.0000
12.0500 84.0000 1.0000
12.0700 98.0000 1.0000
12.0900 96.0000 1.0000
12.1100 100.0000 1.0000
12.1300 79.0000 1.0000
12.1500 100.0000 1.0000
12.1700 80.0000 1.0000
12.1900 74.0000 1.0000
12.2100 83.0000 1.0000
12.2300 75.0000 1.0000
12.2500 75.0000 1.0000
12.2700 78.0000 1.0000
12.2900 93.0000 1.0000
12.3100 111.0000 1.0000
12.3300 74.0000 1.0000
12.3500 83.0000 1.0000
12.3700 100.0000 1.0000
12.3900 74.0000 1.0000
12.4100 86.0000 1.0000
12.4300 89.0000 1.0000
12.4500 78.0000 1.0000
12.4700 84.0000 1.0000
12.4900 88.0000 1.0000
12.5100 93.0000 1.0000
12.5300 94.0000 1.0000
12.5500 83.0000 1.0000
12.5700 77.0000 1.0000
12.5900 67.0000 1.0000
12.6100 71.0000 1.0000
12.6300 86.0000 1.0000
