*RAS_DATA_START
*RAS_HEADER_START
*DISP_FMT_X "%.2f"
*DISP_FMT_Y "%.0f"
*DISP_FULLSCALE "14370.0000000000"
*DISP_LINE_COLOR "255.0000000000"
*DISP_LINE_STYLE "0.0000000000"
*DISP_LINE_WIDTH "0.2500000000"
*DISP_NOTE "Collected Data-1"
*DISP_OFFSET_Y "0.0000000000"
*DISP_PEAKSEARCH_UNIT_Y "COUNTS"
*DISP_RANGE_BOTTOM "0.0000000000"
*DISP_RANGE_LEFT "2.0100000000"
*DISP_RANGE_LOGCUTOFF "0.0100000000"
*DISP_RANGE_RIGHT "69.9900000000"
*DISP_RANGE_TOP "14370.0000000000"
*DISP_SCALE_MODE_Y "0.0000000000"
*DISP_TAB_NAME "Theta/2-Theta"
*DISP_TITLE_Y "Intensity"
*DISP_UNIT_Y "COUNTS"
*DISP_WINDOW_NAME "MSG_MACROENGINE"
*FILE_COMMENT " "
*FILE_MD5 ""
*FILE_MEMO " "
*FILE_OPERATOR "Administrator"
*FILE_PART_ID "MEAS_PBEA_00223"
*FILE_SAMPLE "NaCl"
*FILE_TYPE "RAS_RAW"
*FILE_USERGROUP "System Manager"
*FILE_VERSION "1.0000000000"
*HW_ATTACHMENT_ID "ATT1031"
*HW_ATTACHMENT_NAME "6サンプルチェンジャ|ASC-6"
*HW_COUNTER_ID-0 "CUT0021"
*HW_COUNTER_ID-1 "CUT0020"
*HW_COUNTER_ID-2 "CUT0020"
*HW_COUNTER_ID-3 "CMC0021"
*HW_COUNTER_NAME-0 "SC-70|SC-70"
*HW_COUNTER_NAME-1 "None|None"
*HW_COUNTER_NAME-2 "None|None"
*HW_COUNTER_NAME-3 "検出器モノクロメータ|Detector monochromator"
*HW_COUNTER_SELECT_NAME "SC-70|SC-70"
*HW_ECP_HV "714.0000000000"
*HW_ECP_HV_UNIT "V"
*HW_GONIOMETER_ID "GON0070"
*HW_GONIOMETER_NAME "MiniFlex 300/600|MiniFlex 300/600"
*HW_GONIOMETER_RADIUS-0 "79.0"
*HW_GONIOMETER_RADIUS-1 "91.5"
*HW_GONIOMETER_RADIUS-2 "150.0"
*HW_GONIOMETER_RADIUS-3 "0"
*HW_GONIOMETER_RADIUS-4 "103.4"
*HW_GONIOMETER_RADIUS-5 "150.0"
*HW_GONIOMETER_RADIUS-6 "46.6"
*HW_GONIOMETER_RADIUS-7 "160.0"
*HW_I_OPT_ID-0 "ISL0021"
*HW_I_OPT_ID-1 "ISO0021"
*HW_I_OPT_NAME-0 "発散スリット|Divergence slit"
*HW_I_OPT_NAME-1 "入射平行スリット|Incident parallel slit"
*HW_R_ATTENUATER_AUTOMODE "0"
*HW_R_OPT_ID-0 "RSS0021"
*HW_R_OPT_ID-1 "RSO0021"
*HW_R_OPT_ID-2 "RRS0021"
*HW_R_OPT_NAME-0 "散乱スリット|Scattering slit"
*HW_R_OPT_NAME-1 "受光平行スリット|Receiving soller slit"
*HW_R_OPT_NAME-2 "受光スリット|Receiving slit"
*HW_SAMPLE_HOLDER_ID "SMP0000"
*HW_SAMPLE_HOLDER_NAME "無し|None"
*HW_XG_CURRENT_MAX "50"
*HW_XG_CURRENT_MIN "2"
*HW_XG_CURRENT_RESOLUTION "2"
*HW_XG_CURRENT_UNIT "mA"
*HW_XG_FOCUS "1mm x 10mm"
*HW_XG_FOCUS_TYPE "Normal"
*HW_XG_ID "1062"
*HW_XG_NAME "300W/600W 封入管-A|300W/600W Sealed tube-A"
*HW_XG_TARGET_ATOMIC_NUMBER "29.0000000000"
*HW_XG_TARGET_NAME "Cu"
*HW_XG_TYPE "Compact"
*HW_XG_VOLTAGE_MAX "60"
*HW_XG_VOLTAGE_MIN "20"
*HW_XG_VOLTAGE_RESOLUTION "2"
*HW_XG_VOLTAGE_UNIT "kV"
*HW_XG_WATT_MAX "2.000"
*HW_XG_WATT_UNIT "kW"
*HW_XG_WAVE_LENGTH_ALPHA1 "1.540593"
*HW_XG_WAVE_LENGTH_ALPHA2 "1.544414"
*HW_XG_WAVE_LENGTH_BETA "1.392250"
*MEAS_COND_AXIS_NAME-0 "Theta/2-Theta"
*MEAS_COND_AXIS_NAME-1 "Spin"
*MEAS_COND_AXIS_NAME-2 "Change"
*MEAS_COND_AXIS_NAME-3 "Soller(inc.)"
*MEAS_COND_AXIS_NAME-4 "IHS"
*MEAS_COND_AXIS_NAME-5 "DS"
*MEAS_COND_AXIS_NAME-6 "SS"
*MEAS_COND_AXIS_NAME-7 "Soller(rec.)"
*MEAS_COND_AXIS_NAME-8 "RS"
*MEAS_COND_AXIS_NAME-9 "Filter"
*MEAS_COND_AXIS_NAME-10 "Monochromator"
*MEAS_COND_AXIS_NAME-11 "HV"
*MEAS_COND_AXIS_NAME-12 "PHA"
*MEAS_COND_AXIS_NAME_INTERNAL-0 "TwoThetaTheta"
*MEAS_COND_AXIS_NAME_INTERNAL-1 "Spin"
*MEAS_COND_AXIS_NAME_INTERNAL-2 "Change"
*MEAS_COND_AXIS_NAME_INTERNAL-3 "IncidentSollerSlit"
*MEAS_COND_AXIS_NAME_INTERNAL-4 "IncidentAxdSlit"
*MEAS_COND_AXIS_NAME_INTERNAL-5 "IncidentSlitBox"
*MEAS_COND_AXIS_NAME_INTERNAL-6 "ReceivingSlitBox1"
*MEAS_COND_AXIS_NAME_INTERNAL-7 "ReceivingSollerSlit"
*MEAS_COND_AXIS_NAME_INTERNAL-8 "ReceivingSlitBox2"
*MEAS_COND_AXIS_NAME_INTERNAL-9 "Filter"
*MEAS_COND_AXIS_NAME_INTERNAL-10 "CounterMonochromator"
*MEAS_COND_AXIS_NAME_INTERNAL-11 "HV"
*MEAS_COND_AXIS_NAME_INTERNAL-12 "PHA"
*MEAS_COND_AXIS_NAME_MAGICNO-0 "268632064.0000000000"
*MEAS_COND_AXIS_NAME_MAGICNO-1 "16842752.0000000000"
*MEAS_COND_AXIS_NAME_MAGICNO-2 "16842752.0000000000"
*MEAS_COND_AXIS_NAME_MAGICNO-3 "20971521.0000000000"
*MEAS_COND_AXIS_NAME_MAGICNO-4 "22020097.0000000000"
*MEAS_COND_AXIS_NAME_MAGICNO-5 "22020097.0000000000"
*MEAS_COND_AXIS_NAME_MAGICNO-6 "23068673.0000000000"
*MEAS_COND_AXIS_NAME_MAGICNO-7 "20971521.0000000000"
*MEAS_COND_AXIS_NAME_MAGICNO-8 "23068673.0000000000"
*MEAS_COND_AXIS_NAME_MAGICNO-9 "20971521.0000000000"
*MEAS_COND_AXIS_NAME_MAGICNO-10 "20971521.0000000000"
*MEAS_COND_AXIS_NAME_MAGICNO-11 "0.0000000000"
*MEAS_COND_AXIS_NAME_MAGICNO-12 "0.0000000000"
*MEAS_COND_AXIS_OFFSET-0 "0.0000000000"
*MEAS_COND_AXIS_OFFSET-1 "-"
*MEAS_COND_AXIS_OFFSET-2 "-"
*MEAS_COND_AXIS_OFFSET-3 "-"
*MEAS_COND_AXIS_OFFSET-4 "-"
*MEAS_COND_AXIS_OFFSET-5 "-"
*MEAS_COND_AXIS_OFFSET-6 "-"
*MEAS_COND_AXIS_OFFSET-7 "-"
*MEAS_COND_AXIS_OFFSET-8 "-"
*MEAS_COND_AXIS_OFFSET-9 "-"
*MEAS_COND_AXIS_OFFSET-10 "-"
*MEAS_COND_AXIS_OFFSET-11 "-"
*MEAS_COND_AXIS_OFFSET-12 "-"
*MEAS_COND_AXIS_POSITION-0 "10.0000000000"
*MEAS_COND_AXIS_POSITION-1 "0.0000000000"
*MEAS_COND_AXIS_POSITION-2 "3.0000000000"
*MEAS_COND_AXIS_POSITION-3 "2.5deg"
*MEAS_COND_AXIS_POSITION-4 "10.0mm"
*MEAS_COND_AXIS_POSITION-5 "1.250deg"
*MEAS_COND_AXIS_POSITION-6 "13.0mm(Open)"
*MEAS_COND_AXIS_POSITION-7 "5.0deg"
*MEAS_COND_AXIS_POSITION-8 "13.0mm"
*MEAS_COND_AXIS_POSITION-9 "None"
*MEAS_COND_AXIS_POSITION-10 "None"
*MEAS_COND_AXIS_POSITION-11 "714.0000000000"
*MEAS_COND_AXIS_POSITION-12 "568.7500000000"
*MEAS_COND_AXIS_UNIT-0 "deg"
*MEAS_COND_AXIS_UNIT-1 ""
*MEAS_COND_AXIS_UNIT-2 ""
*MEAS_COND_AXIS_UNIT-3 ""
*MEAS_COND_AXIS_UNIT-4 ""
*MEAS_COND_AXIS_UNIT-5 ""
*MEAS_COND_AXIS_UNIT-6 ""
*MEAS_COND_AXIS_UNIT-7 ""
*MEAS_COND_AXIS_UNIT-8 ""
*MEAS_COND_AXIS_UNIT-9 ""
*MEAS_COND_AXIS_UNIT-10 ""
*MEAS_COND_AXIS_UNIT-11 "V"
*MEAS_COND_AXIS_UNIT-12 "mV"
*MEAS_COND_CORRECTION_SLIT_COUNTERMONO "None"
*MEAS_COND_CORRECTION_SLIT_DS "1.250deg"
*MEAS_COND_CORRECTION_SLIT_FILTER "None"
*MEAS_COND_CORRECTION_SLIT_IHS "10.0mm"
*MEAS_COND_CORRECTION_SLIT_RS "13.0mm"
*MEAS_COND_CORRECTION_SLIT_SOLLER_INC "2.5deg"
*MEAS_COND_CORRECTION_SLIT_SOLLER_REC "5.0deg"
*MEAS_COND_CORRECTION_SLIT_SS "13.0mm"
*MEAS_COND_COUNTER_CNTLOSS_CORR "0.0000000000"
*MEAS_COND_COUNTER_PHABASE "568.7500000000"
*MEAS_COND_COUNTER_PHAWINDOW "926.2500000000"
*MEAS_COND_COUNTER_PHA_UNIT "mV"
*MEAS_COND_COUNTER_TAUDIFF "0.2500000000"
*MEAS_COND_COUNTER_TAUINT "0.7500000000"
*MEAS_COND_IRRADIATION_MODE "OFF"
*MEAS_COND_IRRADIATION_WIDTH ""
*MEAS_COND_OPT_ATTR " "
*MEAS_COND_OPT_NAME ""
*MEAS_COND_UNSYMMETRIC_MODE "OFF"
*MEAS_COND_XG_CURRENT "15.0000000000"
*MEAS_COND_XG_VOLTAGE "40.0000000000"
*MEAS_COND_XG_WAVE_TYPE "Ka"
*MEAS_DATA_COUNT "3400.0000000000"
*MEAS_SCAN_AXIS_X "Theta/2-Theta"
*MEAS_SCAN_AXIS_X_INTERNAL "TwoThetaTheta"
*MEAS_SCAN_END_TIME "02/21/25 11:41:57"
*MEAS_SCAN_MODE "CONTINUOUS"
*MEAS_SCAN_MONITOR "0"
*MEAS_SCAN_RESOLUTION_X "0.0025"
*MEAS_SCAN_SPEED "2.0000"
*MEAS_SCAN_SPEED_UNIT "deg/min"
*MEAS_SCAN_SPEED_USER "2.0000"
*MEAS_SCAN_START "2.0100000000"
*MEAS_SCAN_START_TIME "02/21/25 11:07:49"
*MEAS_SCAN_STEP "0.0200000000"
*MEAS_SCAN_STOP "69.9900000000"
*MEAS_SCAN_UNIT_X "deg"
*MEAS_SCAN_UNIT_Y "counts"
*SLIT_SYSTEM "0"
*RAS_HEADER_END
*RAS_INT_START
2.0100 706.0000 1.0000
2.0300 864.0000 1.0000
2.0500 728.0000 1.0000
2.0700 694.0000 1.0000
2.0900 804.0000 1.0000
2.1100 734.0000 1.0000
2.1300 692.0000 1.0000
2.1500 764.0000 1.0000
2.1700 697.0000 1.0000
2.1900 597.0000 1.0000
2.2100 701.0000 1.0000
2.2300 670.0000 1.0000
2.2500 697.0000 1.0000
2.2700 444.0000 1.0000
2.2900 644.0000 1.0000
2.3100 485.0000 1.0000
2.3300 601.0000 1.0000
2.3500 636.0000 1.0000
2.3700 449.0000 1.0000
2.3900 609.0000 1.0000
2.4100 534.0000 1.0000
2.4300 515.0000 1.0000
2.4500 419.0000 1.0000
2.4700 537.0000 1.0000
2.4900 502.0000 1.0000
2.5100 483.0000 1.0000
2.5300 627.0000 1.0000
2.5500 527.0000 1.0000
2.5700 538.0000 1.0000
2.5900 692.0000 1.0000
2.6100 637.0000 1.0000
2.6300 476.0000 1.0000
2.6500 542.0000 1.0000
2.6700 531.0000 1.0000
2.6900 396.0000 1.0000
2.7100 586.0000 1.0000
2.7300 479.0000 1.0000
2.7500 577.0000 1.0000
2.7700 458.0000 1.0000
2.7900 522.0000 1.0000
2.8100 518.0000 1.0000
2.8300 541.0000 1.0000
2.8500 465.0000 1.0000
2.8700 455.0000 1.0000
2.8900 530.0000 1.0000
2.9100 391.0000 1.0000
2.9300 446.0000 1.0000
2.9500 386.0000 1.0000
2.9700 321.0000 1.0000
2.9900 350.0000 1.0000
3.0100 391.0000 1.0000
3.0300 400.0000 1.0000
3.0500 392.0000 1.0000
3.0700 389.0000 1.0000
3.0900 375.0000 1.0000
3.1100 288.0000 1.0000
3.1300 358.0000 1.0000
3.1500 356.0000 1.0000
3.1700 389.0000 1.0000
3.1900 275.0000 1.0000
3.2100 326.0000 1.0000
3.2300 410.0000 1.0000
3.2500 350.0000 1.0000
3.2700 320.0000 1.0000
3.2900 267.0000 1.0000
3.3100 288.0000 1.0000
3.3300 325.0000 1.0000
3.3500 357.0000 1.0000
3.3700 316.0000 1.0000
3.3900 248.0000 1.0000
3.4100 296.0000 1.0000
3.4300 256.0000 1.0000
3.4500 260.0000 1.0000
3.4700 215.0000 1.0000
3.4900 235.0000 1.0000
3.5100 271.0000 1.0000
3.5300 280.0000 1.0000
3.5500 237.0000 1.0000
3.5700 246.0000 1.0000
3.5900 234.0000 1.0000
3.6100 290.0000 1.0000
3.6300 175.0000 1.0000
3.6500 281.0000 1.0000
3.6700 229.0000 1.0000
3.6900 243.0000 1.0000
3.7100 231.0000 1.0000
3.7300 235.0000 1.0000
3.7500 224.0000 1.0000
3.7700 198.0000 1.0000
3.7900 222.0000 1.0000
3.8100 235.0000 1.0000
3.8300 200.0000 1.0000
3.8500 233.0000 1.0000
3.8700 193.0000 1.0000
3.8900 173.0000 1.0000
3.9100 224.0000 1.0000
3.9300 204.0000 1.0000
3.9500 189.0000 1.0000
3.9700 202.0000 1.0000
3.9900 220.0000 1.0000
4.0100 261.0000 1.0000
4.0300 158.0000 1.0000
4.0500 189.0000 1.0000
4.0700 170.0000 1.0000
4.0900 164.0000 1.0000
4.1100 182.0000 1.0000
4.1300 158.0000 1.0000
4.1500 153.0000 1.0000
4.1700 188.0000 1.0000
4.1900 174.0000 1.0000
4.2100 177.0000 1.0000
4.2300 212.0000 1.0000
4.2500 220.0000 1.0000
4.2700 197.0000 1.0000
4.2900 165.0000 1.0000
4.3100 186.0000 1.0000
4.3300 172.0000 1.0000
4.3500 193.0000 1.0000
4.3700 179.0000 1.0000
4.3900 221.0000 1.0000
4.4100 135.0000 1.0000
4.4300 211.0000 1.0000
4.4500 189.0000 1.0000
4.4700 163.0000 1.0000
4.4900 137.0000 1.0000
4.5100 170.0000 1.0000
4.5300 214.0000 1.0000
4.5500 127.0000 1.0000
4.5700 176.0000 1.0000
4.5900 159.0000 1.0000
4.6100 207.0000 1.0000
4.6300 117.0000 1.0000
4.6500 157.0000 1.0000
4.6700 136.0000 1.0000
4.6900 167.0000 1.0000
4.7100 194.0000 1.0000
4.7300 126.0000 1.0000
4.7500 161.0000 1.0000
4.7700 145.0000 1.0000
4.7900 183.0000 1.0000
4.8100 116.0000 1.0000
4.8300 174.0000 1.0000
4.8500 108.0000 1.0000
4.8700 123.0000 1.0000
4.8900 134.0000 1.0000
4.9100 148.0000 1.0000
4.9300 140.0000 1.0000
4.9500 158.0000 1.0000
4.9700 139.0000 1.0000
4.9900 161.0000 1.0000
5.0100 179.0000 1.0000
5.0300 156.0000 1.0000
5.0500 152.0000 1.0000
5.0700 140.0000 1.0000
5.0900 158.0000 1.0000
5.1100 143.0000 1.0000
5.1300 127.0000 1.0000
5.1500 160.0000 1.0000
5.1700 166.0000 1.0000
5.1900 148.0000 1.0000
5.2100 147.0000 1.0000
5.2300 143.0000 1.0000
5.2500 135.0000 1.0000
5.2700 135.0000 1.0000
5.2900 162.0000 1.0000
5.3100 106.0000 1.0000
5.3300 151.0000 1.0000
5.3500 150.0000 1.0000
5.3700 104.0000 1.0000
5.3900 156.0000 1.0000
5.4100 121.0000 1.0000
5.4300 144.0000 1.0000
5.4500 158.0000 1.0000
5.4700 126.0000 1.0000
5.4900 109.0000 1.0000
5.5100 136.0000 1.0000
5.5300 145.0000 1.0000
5.5500 135.0000 1.0000
5.5700 194.0000 1.0000
5.5900 140.0000 1.0000
5.6100 140.0000 1.0000
5.6300 149.0000 1.0000
5.6500 172.0000 1.0000
5.6700 128.0000 1.0000
5.6900 171.0000 1.0000
5.7100 121.0000 1.0000
5.7300 160.0000 1.0000
5.7500 153.0000 1.0000
5.7700 126.0000 1.0000
5.7900 116.0000 1.0000
5.8100 170.0000 1.0000
5.8300 135.0000 1.0000
5.8500 147.0000 1.0000
5.8700 140.0000 1.0000
5.8900 127.0000 1.0000
5.9100 142.0000 1.0000
5.9300 189.0000 1.0000
5.9500 173.0000 1.0000
5.9700 156.0000 1.0000
5.9900 140.0000 1.0000
6.0100 168.0000 1.0000
6.0300 173.0000 1.0000
6.0500 154.0000 1.0000
6.0700 157.0000 1.0000
6.0900 135.0000 1.0000
6.1100 183.0000 1.0000
6.1300 171.0000 1.0000
6.1500 185.0000 1.0000
6.1700 173.0000 1.0000
6.1900 175.0000 1.0000
6.2100 180.0000 1.0000
6.2300 177.0000 1.0000
6.2500 215.0000 1.0000
6.2700 241.0000 1.0000
6.2900 181.0000 1.0000
6.3100 204.0000 1.0000
6.3300 198.0000 1.0000
6.3500 224.0000 1.0000
6.3700 214.0000 1.0000
6.3900 222.0000 1.0000
6.4100 227.0000 1.0000
6.4300 256.0000 1.0000
6.4500 264.0000 1.0000
6.4700 234.0000 1.0000
6.4900 256.0000 1.0000
6.5100 241.0000 1.0000
6.5300 269.0000 1.0000
6.5500 265.0000 1.0000
6.5700 267.0000 1.0000
6.5900 266.0000 1.0000
6.6100 277.0000 1.0000
6.6300 270.0000 1.0000
6.6500 303.0000 1.0000
6.6700 266.0000 1.0000
6.6900 229.0000 1.0000
6.7100 278.0000 1.0000
6.7300 352.0000 1.0000
6.7500 343.0000 1.0000
6.7700 317.0000 1.0000
6.7900 281.0000 1.0000
6.8100 291.0000 1.0000
6.8300 263.0000 1.0000
6.8500 352.0000 1.0000
6.8700 332.0000 1.0000
6.8900 325.0000 1.0000
6.9100 351.0000 1.0000
6.9300 364.0000 1.0000
6.9500 379.0000 1.0000
6.9700 281.0000 1.0000
6.9900 323.0000 1.0000
7.0100 349.0000 1.0000
7.0300 319.0000 1.0000
7.0500 286.0000 1.0000
7.0700 325.0000 1.0000
7.0900 253.0000 1.0000
7.1100 347.0000 1.0000
7.1300 335.0000 1.0000
7.1500 311.0000 1.0000
7.1700 362.0000 1.0000
7.1900 260.0000 1.0000
7.2100 262.0000 1.0000
7.2300 271.0000 1.0000
7.2500 289.0000 1.0000
7.2700 267.0000 1.0000
7.2900 287.0000 1.0000
7.3100 294.0000 1.0000
7.3300 301.0000 1.0000
7.3500 264.0000 1.0000
7.3700 221.0000 1.0000
7.3900 240.0000 1.0000
7.4100 265.0000 1.0000
7.4300 284.0000 1.0000
7.4500 238.0000 1.0000
7.4700 243.0000 1.0000
7.4900 205.0000 1.0000
7.5100 189.0000 1.0000
7.5300 186.0000 1.0000
7.5500 148.0000 1.0000
7.5700 170.0000 1.0000
7.5900 165.0000 1.0000
7.6100 125.0000 1.0000
7.6300 113.0000 1.0000
7.6500 68.0000 1.0000
7.6700 66.0000 1.0000
7.6900 109.0000 1.0000
7.7100 90.0000 1.0000
7.7300 106.0000 1.0000
7.7500 111.0000 1.0000
7.7700 101.0000 1.0000
7.7900 106.0000 1.0000
7.8100 100.0000 1.0000
7.8300 117.0000 1.0000
7.8500 102.0000 1.0000
7.8700 119.0000 1.0000
7.8900 76.0000 1.0000
7.9100 128.0000 1.0000
7.9300 99.0000 1.0000
7.9500 101.0000 1.0000
7.9700 110.0000 1.0000
7.9900 96.0000 1.0000
8.0100 84.0000 1.0000
8.0300 98.0000 1.0000
8.0500 70.0000 1.0000
8.0700 109.0000 1.0000
8.0900 97.0000 1.0000
8.1100 94.0000 1.0000
8.1300 71.0000 1.0000
8.1500 126.0000 1.0000
8.1700 89.0000 1.0000
8.1900 78.0000 1.0000
8.2100 102.0000 1.0000
8.2300 68.0000 1.0000
8.2500 102.0000 1.0000
8.2700 75.0000 1.0000
8.2900 81.0000 1.0000
8.3100 92.0000 1.0000
8.3300 85.0000 1.0000
8.3500 107.0000 1.0000
8.3700 89.0000 1.0000
8.3900 82.0000 1.0000
8.4100 89.0000 1.0000
8.4300 91.0000 1.0000
8.4500 75.0000 1.0000
8.4700 101.0000 1.0000
8.4900 106.0000 1.0000
8.5100 83.0000 1.0000
8.5300 96.0000 1.0000
8.5500 76.0000 1.0000
8.5700 89.0000 1.0000
8.5900 89.0000 1.0000
8.6100 52.0000 1.0000
8.6300 65.0000 1.0000
8.6500 84.0000 1.0000
8.6700 75.0000 1.0000
8.6900 84.0000 1.0000
8.7100 84.0000 1.0000
8.7300 68.0000 1.0000
8.7500 77.0000 1.0000
8.7700 94.0000 1.0000
8.7900 79.0000 1.0000
8.8100 93.0000 1.0000
8.8300 95.0000 1.0000
8.8500 87.0000 1.0000
8.8700 84.0000 1.0000
8.8900 86.0000 1.0000
8.9100 92.0000 1.0000
8.9300 94.0000 1.0000
8.9500 92.0000 1.0000
8.9700 94.0000 1.0000
8.9900 85.0000 1.0000
9.0100 79.0000 1.0000
9.0300 83.0000 1.0000
9.0500 74.0000 1.0000
9.0700 93.0000 1.0000
9.0900 90.0000 1.0000
9.1100 74.0000 1.0000
9.1300 94.0000 1.0000
9.1500 53.0000 1.0000
9.1700 98.0000 1.0000
9.1900 102.0000 1.0000
9.2100 87.0000 1.0000
9.2300 103.0000 1.0000
9.2500 91.0000 1.0000
9.2700 97.0000 1.0000
9.2900 89.0000 1.0000
9.3100 82.0000 1.0000
9.3300 108.0000 1.0000
9.3500 90.0000 1.0000
9.3700 78.0000 1.0000
9.3900 98.0000 1.0000
9.4100 73.0000 1.0000
9.4300 75.0000 1.0000
9.4500 79.0000 1.0000
9.4700 81.0000 1.0000
9.4900 95.0000 1.0000
9.5100 83.0000 1.0000
9.5300 92.0000 1.0000
9.5500 100.0000 1.0000
9.5700 88.0000 1.0000
9.5900 109.0000 1.0000
9.6100 101.0000 1.0000
9.6300 82.0000 1.0000
9.6500 114.0000 1.0000
9.6700 79.0000 1.0000
9.6900 116.0000 1.0000
9.7100 75.0000 1.0000
9.7300 90.0000 1.0000
9.7500 102.0000 1.0000
9.7700 65.0000 1.0000
9.7900 86.0000 1.0000
9.8100 69.0000 1.0000
9.8300 105.0000 1.0000
9.8500 87.0000 1.0000
9.8700 93.0000 1.0000
9.8900 70.0000 1.0000
9.9100 85.0000 1.0000
9.9300 66.0000 1.0000
9.9500 68.0000 1.0000
9.9700 116.0000 1.0000
9.9900 105.0000 1.0000
10.0100 91.0000 1.0000
10.0300 67.0000 1.0000
10.0500 69.0000 1.0000
10.0700 89.0000 1.0000
10.0900 87.0000 1.0000
10.1100 105.0000 1.0000
10.1300 101.0000 1.0000
10.1500 77.0000 1.0000
10.1700 92.0000 1.0000
10.1900 77.0000 1.0000
10.2100 82.0000 1.0000
10.2300 79.0000 1.0000
10.2500 97.0000 1.0000
10.2700 76.0000 1.0000
10.2900 96.0000 1.0000
10.3100 89.0000 1.0000
10.3300 105.0000 1.0000
10.3500 63.0000 1.0000
10.3700 83.0000 1.0000
10.3900 74.0000 1.0000
10.4100 81.0000 1.0000
10.4300 95.0000 1.0000
10.4500 79.0000 1.0000
10.4700 71.0000 1.0000
10.4900 86.0000 1.0000
10.5100 80.0000 1.0000
10.5300 71.0000 1.0000
10.5500 66.0000 1.0000
10.5700 88.0000 1.0000
10.5900 83.0000 1.0000
10.6100 72.0000 1.0000
10.6300 67.0000 1.0000
10.6500 81.0000 1.0000
10.6700 53.0000 1.0000
10.6900 65.0000 1.0000
10.7100 49.0000 1.0000
10.7300 59.0000 1.0000
10.7500 42.0000 1.0000
10.7700 66.0000 1.0000
10.7900 78.0000 1.0000
10.8100 45.0000 1.0000
10.8300 71.0000 1.0000
10.8500 57.0000 1.0000
10.8700 43.0000 1.0000
10.8900 76.0000 1.0000
10.9100 60.0000 1.0000
10.9300 56.0000 1.0000
10.9500 46.0000 1.0000
10.9700 65.0000 1.0000
10.9900 56.0000 1.0000
11.0100 54.0000 1.0000
11.0300 63.0000 1.0000
11.0500 59.0000 1.0000
11.0700 64.0000 1.0000
11.0900 74.0000 1.0000
11.1100 72.0000 1.0000
11.1300 47.0000 1.0000
11.1500 55.0000 1.0000
11.1700 64.0000 1.0000
11.1900 53.0000 1.0000
11.2100 73.0000 1.0000
11.2300 53.0000 1.0000
11.2500 71.0000 1.0000
11.2700 50.0000 1.0000
11.2900 45.0000 1.0000
11.3100 68.0000 1.0000
11.3300 35.0000 1.0000
11.3500 49.0000 1.0000
11.3700 72.0000 1.0000
11.3900 54.0000 1.0000
11.4100 41.0000 1.0000
11.4300 62.0000 1.0000
11.4500 67.0000 1.0000
11.4700 52.0000 1.0000
11.4900 54.0000 1.0000
11.5100 54.0000 1.0000
11.5300 60.0000 1.0000
11.5500 32.0000 1.0000
11.5700 53.0000 1.0000
11.5900 63.0000 1.0000
11.6100 72.0000 1.0000
11.6300 55.0000 1.0000
11.6500 55.0000 1.0000
11.6700 61.0000 1.0000
11.6900 66.0000 1.0000
11.7100 57.0000 1.0000
11.7300 62.0000 1.0000
11.7500 53.0000 1.0000
11.7700 54.0000 1.0000
11.7900 48.0000 1.0000
11.8100 55.0000 1.0000
11.8300 36.0000 1.0000
11.8500 55.0000 1.0000
11.8700 57.0000 1.0000
11.8900 60.0000 1.0000
11.9100 52.0000 1.0000
11.9300 47.0000 1.0000
11.9500 66.0000 1.0000
11.9700 52.0000 1.0000
11.9900 67.0000 1.0000
12.0100 70.0000 1.0000
12.0300 47.0000 1.0000
12.0500 54.0000 1.0000
12.0700 56.0000 1.0000
12.0900 51.0000 1.0000
12.1100 56.0000 1.0000
12.1300 40.0000 1.0000
12.1500 52.0000 1.0000
12.1700 46.0000 1.0000
12.1900 46.0000 1.0000
12.2100 60.0000 1.0000
12.2300 58.0000 1.0000
12.2500 69.0000 1.0000
12.2700 44.0000 1.0000
12.2900 49.0000 1.0000
12.3100 46.0000 1.0000
12.3300 67.0000 1.0000
12.3500 32.0000 1.0000
12.3700 47.0000 1.0000
12.3900 59.0000 1.0000
12.4100 59.0000 1.0000
12.4300 56.0000 1.0000
12.4500 54.0000 1.0000
12.4700 49.0000 1.0000
12.4900 55.0000 1.0000
12.5100 45.0000 1.0000
12.5300 52.0000 1.0000
12.5500 66.0000 1.0000
12.5700 63.0000 1.0000
12.5900 46.0000 1.0000
12.6100 70.0000 1.0000
12.6300 67.0000 1.0000
12.6500 56.0000 1.0000
12.6700 62.0000 1.0000
12.6900 56.0000 1.0000
12.7100 43.0000 1.0000
12.7300 59.0000 1.0000
12.7500 56.0000 1.0000
